;Scopy version,f4beeb1
;Exported on,Wednesday May 15/05/2024
;Device,M2K
;Nr of samples,6400
;Sample rate,100000
;Tool,Oscilloscope
;Additional Information,
Sample,Time(S),CH1(V)
0,-0.032,-13.1124
1,-0.03199,-13.1124
2,-0.03198,-13.1124
3,-0.03197,-13.1124
4,-0.03196,-13.1124
5,-0.03195,-13.1124
6,-0.03194,-13.0957
7,-0.03193,-13.1124
8,-0.03192,-13.1124
9,-0.03191,-13.1124
10,-0.0319,-13.0957
11,-0.03189,-13.1291
12,-0.03188,-13.0957
13,-0.03187,-13.0957
14,-0.03186,-13.0957
15,-0.03185,-13.0957
16,-0.03184,-13.1124
17,-0.03183,-13.1291
18,-0.03182,-13.0957
19,-0.03181,-13.1124
20,-0.0318,-13.0957
21,-0.03179,-13.0957
22,-0.03178,-13.0957
23,-0.03177,-13.0957
24,-0.03176,-13.0957
25,-0.03175,-13.0957
26,-0.03174,-13.0957
27,-0.03173,-13.0957
28,-0.03172,-13.0957
29,-0.03171,-13.0957
30,-0.0317,-13.0957
31,-0.03169,-13.0957
32,-0.03168,-13.1291
33,-0.03167,-13.0957
34,-0.03166,-13.0957
35,-0.03165,-13.0957
36,-0.03164,-13.0957
37,-0.03163,-13.0957
38,-0.03162,-13.0957
39,-0.03161,-13.0957
40,-0.0316,-13.0957
41,-0.03159,-13.0957
42,-0.03158,-13.0957
43,-0.03157,-13.0957
44,-0.03156,-13.0957
45,-0.03155,-13.0957
46,-0.03154,-13.0957
47,-0.03153,-13.0957
48,-0.03152,-13.0957
49,-0.03151,-13.0957
50,-0.0315,-13.0957
51,-0.03149,-13.0957
52,-0.03148,-13.1124
53,-0.03147,-13.079
54,-0.03146,-13.0957
55,-0.03145,-13.0957
56,-0.03144,-13.0957
57,-0.03143,-13.0957
58,-0.03142,-13.079
59,-0.03141,-13.0957
60,-0.0314,-13.079
61,-0.03139,-13.1124
62,-0.03138,-13.0957
63,-0.03137,-13.0957
64,-0.03136,-13.079
65,-0.03135,-13.079
66,-0.03134,-13.079
67,-0.03133,-13.079
68,-0.03132,-13.079
69,-0.03131,-13.079
70,-0.0313,-13.079
71,-0.03129,-13.079
72,-0.03128,-13.079
73,-0.03127,-13.079
74,-0.03126,-13.079
75,-0.03125,-13.079
76,-0.03124,-13.079
77,-0.03123,-13.079
78,-0.03122,-13.079
79,-0.03121,-13.079
80,-0.0312,-13.079
81,-0.03119,-13.079
82,-0.03118,-13.079
83,-0.03117,-13.079
84,-0.03116,-13.079
85,-0.03115,-13.079
86,-0.03114,-13.079
87,-0.03113,-13.079
88,-0.03112,-13.079
89,-0.03111,-13.079
90,-0.0311,-13.079
91,-0.03109,-13.079
92,-0.03108,-13.079
93,-0.03107,-13.079
94,-0.03106,-13.079
95,-0.03105,-13.0957
96,-0.03104,-13.0623
97,-0.03103,-13.079
98,-0.03102,-13.079
99,-0.03101,-13.079
100,-0.031,-13.079
101,-0.03099,-13.0623
102,-0.03098,-13.0623
103,-0.03097,-13.079
104,-0.03096,-13.0623
105,-0.03095,-13.0623
106,-0.03094,-13.0623
107,-0.03093,-13.0623
108,-0.03092,-13.0623
109,-0.03091,-13.0623
110,-0.0309,-13.0623
111,-0.03089,-13.0623
112,-0.03088,-13.0623
113,-0.03087,-13.0623
114,-0.03086,-13.0623
115,-0.03085,-13.0623
116,-0.03084,-13.0623
117,-0.03083,-13.0623
118,-0.03082,-13.0623
119,-0.03081,-13.0623
120,-0.0308,-13.0623
121,-0.03079,-13.0623
122,-0.03078,-13.0623
123,-0.03077,-13.0623
124,-0.03076,-13.0623
125,-0.03075,-13.0289
126,-0.03074,-13.0289
127,-0.03073,-13.0289
128,-0.03072,-13.0289
129,-0.03071,-13.0289
130,-0.0307,-13.0289
131,-0.03069,-13.0289
132,-0.03068,-13.0289
133,-0.03067,-13.0289
134,-0.03066,-13.0289
135,-0.03065,-13.0289
136,-0.03064,-13.0289
137,-0.03063,-13.0289
138,-0.03062,-13.0289
139,-0.03061,-13.0289
140,-0.0306,-13.0122
141,-0.03059,-13.0122
142,-0.03058,-13.0122
143,-0.03057,-13.0122
144,-0.03056,-13.0122
145,-0.03055,-13.0122
146,-0.03054,-13.0122
147,-0.03053,-13.0122
148,-0.03052,-12.9955
149,-0.03051,-12.9955
150,-0.0305,-12.9955
151,-0.03049,-12.9621
152,-0.03048,-13.1959
153,-0.03047,-3.44097
154,-0.03046,11.6258
155,-0.03045,10.7071
156,-0.03044,10.7572
157,-0.03043,10.7238
158,-0.03042,10.6904
159,-0.03041,10.7572
160,-0.0304,10.9576
161,-0.03039,10.8741
162,-0.03038,10.7906
163,-0.03037,11.0579
164,-0.03036,11.0913
165,-0.03035,10.9409
166,-0.03034,11.2082
167,-0.03033,11.2416
168,-0.03032,11.0579
169,-0.03031,11.3752
170,-0.0303,11.4253
171,-0.03029,11.2082
172,-0.03028,11.4755
173,-0.03027,11.6091
174,-0.03026,11.3752
175,-0.03025,11.5924
176,-0.03024,11.726
177,-0.03023,11.4922
178,-0.03022,11.6759
179,-0.03021,11.8262
180,-0.0302,11.6592
181,-0.03019,11.726
182,-0.03018,11.893
183,-0.03017,11.7928
184,-0.03016,11.7427
185,-0.03015,11.9766
186,-0.03014,11.893
187,-0.03013,11.7761
188,-0.03012,12.0267
189,-0.03011,12.01
190,-0.0301,11.8429
191,-0.03009,12.0935
192,-0.03008,12.1102
193,-0.03007,11.893
194,-0.03006,12.1269
195,-0.03005,12.177
196,-0.03004,11.9432
197,-0.03003,12.1436
198,-0.03002,12.2271
199,-0.03001,11.9933
200,-0.03,12.1603
201,-0.02999,12.2772
202,-0.02998,12.0768
203,-0.02997,12.1603
204,-0.02996,12.3273
205,-0.02995,12.1603
206,-0.02994,12.1603
207,-0.02993,12.3441
208,-0.02992,12.2438
209,-0.02991,12.1436
210,-0.0299,12.3775
211,-0.02989,12.3273
212,-0.02988,12.1603
213,-0.02987,12.3942
214,-0.02986,12.3775
215,-0.02985,12.1436
216,-0.02984,12.3942
217,-0.02983,12.4276
218,-0.02982,12.177
219,-0.02981,12.3775
220,-0.0298,12.461
221,-0.02979,12.1937
222,-0.02978,12.3775
223,-0.02977,12.1603
224,-0.02976,13.8641
225,-0.02975,-12.1603
226,-0.02974,-13.1291
227,-0.02973,-13.5634
228,-0.02972,-13.4799
229,-0.02971,-13.363
230,-0.0297,-13.2795
231,-0.02969,-13.2126
232,-0.02968,-13.1625
233,-0.02967,-13.1291
234,-0.02966,-13.1124
235,-0.02965,-13.079
236,-0.02964,-13.0623
237,-0.02963,-13.0623
238,-0.02962,-13.0289
239,-0.02961,-13.0289
240,-0.0296,-13.0289
241,-0.02959,-13.0289
242,-0.02958,-13.0289
243,-0.02957,-13.0122
244,-0.02956,-13.0122
245,-0.02955,-13.0122
246,-0.02954,-13.0122
247,-0.02953,-13.0122
248,-0.02952,-13.0122
249,-0.02951,-13.0122
250,-0.0295,-13.0122
251,-0.02949,-13.0122
252,-0.02948,-13.0122
253,-0.02947,-13.0122
254,-0.02946,-13.0122
255,-0.02945,-13.0122
256,-0.02944,-13.0289
257,-0.02943,-13.0122
258,-0.02942,-13.0122
259,-0.02941,-13.0122
260,-0.0294,-13.0289
261,-0.02939,-13.0289
262,-0.02938,-13.0289
263,-0.02937,-13.0289
264,-0.02936,-13.0289
265,-0.02935,-13.0289
266,-0.02934,-13.0289
267,-0.02933,-13.0289
268,-0.02932,-13.0289
269,-0.02931,-13.0289
270,-0.0293,-13.0289
271,-0.02929,-13.0289
272,-0.02928,-13.0289
273,-0.02927,-13.0289
274,-0.02926,-13.0289
275,-0.02925,-13.0289
276,-0.02924,-13.0289
277,-0.02923,-13.0289
278,-0.02922,-13.0289
279,-0.02921,-13.0289
280,-0.0292,-13.0289
281,-0.02919,-13.0289
282,-0.02918,-13.0289
283,-0.02917,-13.0289
284,-0.02916,-13.0289
285,-0.02915,-13.0289
286,-0.02914,-13.0289
287,-0.02913,-13.0289
288,-0.02912,-13.0289
289,-0.02911,-13.0289
290,-0.0291,-13.0289
291,-0.02909,-13.0289
292,-0.02908,-13.0289
293,-0.02907,-13.0289
294,-0.02906,-13.0289
295,-0.02905,-13.0289
296,-0.02904,-13.0289
297,-0.02903,-13.0289
298,-0.02902,-13.0289
299,-0.02901,-13.0289
300,-0.029,-13.0289
301,-0.02899,-13.0289
302,-0.02898,-13.0289
303,-0.02897,-13.0289
304,-0.02896,-13.0289
305,-0.02895,-13.0289
306,-0.02894,-13.0289
307,-0.02893,-13.0289
308,-0.02892,-13.0289
309,-0.02891,-13.0289
310,-0.0289,-13.0289
311,-0.02889,-13.0623
312,-0.02888,-13.0289
313,-0.02887,-13.0289
314,-0.02886,-13.0289
315,-0.02885,-13.0289
316,-0.02884,-13.0289
317,-0.02883,-13.0289
318,-0.02882,-13.0289
319,-0.02881,-13.0289
320,-0.0288,-13.079
321,-0.02879,-13.0289
322,-0.02878,-13.0623
323,-0.02877,-13.0623
324,-0.02876,-13.0623
325,-0.02875,-13.0289
326,-0.02874,-13.0289
327,-0.02873,-13.0623
328,-0.02872,-13.0623
329,-0.02871,-13.0623
330,-0.0287,-13.0623
331,-0.02869,-13.0623
332,-0.02868,-13.0623
333,-0.02867,-13.0623
334,-0.02866,-13.0623
335,-0.02865,-13.0623
336,-0.02864,-13.0623
337,-0.02863,-13.0623
338,-0.02862,-13.0623
339,-0.02861,-13.0623
340,-0.0286,-13.0623
341,-0.02859,-13.0623
342,-0.02858,-13.0623
343,-0.02857,-13.0623
344,-0.02856,-13.0623
345,-0.02855,-13.0623
346,-0.02854,-13.0623
347,-0.02853,-13.0623
348,-0.02852,-13.0623
349,-0.02851,-13.0623
350,-0.0285,-13.0623
351,-0.02849,-13.0623
352,-0.02848,-13.0623
353,-0.02847,-13.0623
354,-0.02846,-13.0623
355,-0.02845,-13.0623
356,-0.02844,-13.0623
357,-0.02843,-13.0623
358,-0.02842,-13.0623
359,-0.02841,-13.0623
360,-0.0284,-13.0623
361,-0.02839,-13.0623
362,-0.02838,-13.0623
363,-0.02837,-13.0623
364,-0.02836,-13.0623
365,-0.02835,-13.0623
366,-0.02834,-13.0623
367,-0.02833,-13.0623
368,-0.02832,-13.0623
369,-0.02831,-13.0623
370,-0.0283,-13.0623
371,-0.02829,-13.0623
372,-0.02828,-13.0623
373,-0.02827,-13.0623
374,-0.02826,-13.0623
375,-0.02825,-13.0623
376,-0.02824,-13.0623
377,-0.02823,-13.0623
378,-0.02822,-13.0623
379,-0.02821,-13.0623
380,-0.0282,-13.0623
381,-0.02819,-13.0623
382,-0.02818,-13.0623
383,-0.02817,-13.0623
384,-0.02816,-13.0623
385,-0.02815,-13.0623
386,-0.02814,-13.0623
387,-0.02813,-13.0623
388,-0.02812,-13.0623
389,-0.02811,-13.0623
390,-0.0281,-13.0623
391,-0.02809,-13.0623
392,-0.02808,-13.0623
393,-0.02807,-13.0623
394,-0.02806,-13.0623
395,-0.02805,-13.0623
396,-0.02804,-13.0623
397,-0.02803,-13.0623
398,-0.02802,-13.0623
399,-0.02801,-13.0623
400,-0.028,-13.0623
401,-0.02799,-13.0623
402,-0.02798,-13.0623
403,-0.02797,-13.0623
404,-0.02796,-13.0623
405,-0.02795,-13.0623
406,-0.02794,-13.0623
407,-0.02793,-13.0623
408,-0.02792,-13.0623
409,-0.02791,-13.0623
410,-0.0279,-13.0623
411,-0.02789,-13.0623
412,-0.02788,-13.0623
413,-0.02787,-13.0623
414,-0.02786,-13.0623
415,-0.02785,-13.0623
416,-0.02784,-13.0623
417,-0.02783,-13.0623
418,-0.02782,-13.0623
419,-0.02781,-13.0623
420,-0.0278,-13.0623
421,-0.02779,-13.0623
422,-0.02778,-13.0623
423,-0.02777,-13.0623
424,-0.02776,-13.0623
425,-0.02775,-13.0623
426,-0.02774,-13.0623
427,-0.02773,-13.0623
428,-0.02772,-13.0623
429,-0.02771,-13.0623
430,-0.0277,-13.0623
431,-0.02769,-13.0623
432,-0.02768,-13.0623
433,-0.02767,-13.0623
434,-0.02766,-13.0623
435,-0.02765,-13.0623
436,-0.02764,-13.0623
437,-0.02763,-13.0623
438,-0.02762,-13.0623
439,-0.02761,-13.0623
440,-0.0276,-13.0623
441,-0.02759,-13.0623
442,-0.02758,-13.0623
443,-0.02757,-13.0623
444,-0.02756,-13.0623
445,-0.02755,-13.0623
446,-0.02754,-13.0623
447,-0.02753,-13.0623
448,-0.02752,-13.0623
449,-0.02751,-13.0623
450,-0.0275,-13.0623
451,-0.02749,-13.0623
452,-0.02748,-13.0623
453,-0.02747,-13.0623
454,-0.02746,-13.0623
455,-0.02745,-13.0623
456,-0.02744,-13.0623
457,-0.02743,-13.0623
458,-0.02742,-13.0623
459,-0.02741,-13.0623
460,-0.0274,-13.0623
461,-0.02739,-13.0623
462,-0.02738,-13.0623
463,-0.02737,-13.0623
464,-0.02736,-13.0623
465,-0.02735,-13.0623
466,-0.02734,-13.0623
467,-0.02733,-13.0623
468,-0.02732,-13.0623
469,-0.02731,-13.0623
470,-0.0273,-13.0623
471,-0.02729,-13.0623
472,-0.02728,-13.0623
473,-0.02727,-13.0623
474,-0.02726,-13.0623
475,-0.02725,-13.0623
476,-0.02724,-13.0623
477,-0.02723,-13.0623
478,-0.02722,-13.079
479,-0.02721,-13.0623
480,-0.0272,-13.079
481,-0.02719,-13.079
482,-0.02718,-13.0623
483,-0.02717,-13.0623
484,-0.02716,-13.0623
485,-0.02715,-13.0623
486,-0.02714,-13.0623
487,-0.02713,-13.079
488,-0.02712,-13.079
489,-0.02711,-13.0623
490,-0.0271,-13.0623
491,-0.02709,-13.0957
492,-0.02708,-13.079
493,-0.02707,-13.0623
494,-0.02706,-13.079
495,-0.02705,-13.079
496,-0.02704,-13.079
497,-0.02703,-13.079
498,-0.02702,-13.079
499,-0.02701,-13.0623
500,-0.027,-13.0623
501,-0.02699,-13.0623
502,-0.02698,-13.0623
503,-0.02697,-13.079
504,-0.02696,-13.079
505,-0.02695,-13.079
506,-0.02694,-13.079
507,-0.02693,-13.079
508,-0.02692,-13.079
509,-0.02691,-13.079
510,-0.0269,-13.079
511,-0.02689,-13.079
512,-0.02688,-13.079
513,-0.02687,-13.079
514,-0.02686,-13.0623
515,-0.02685,-13.0957
516,-0.02684,-13.079
517,-0.02683,-13.079
518,-0.02682,-13.079
519,-0.02681,-13.079
520,-0.0268,-13.079
521,-0.02679,-13.079
522,-0.02678,-13.079
523,-0.02677,-13.079
524,-0.02676,-13.079
525,-0.02675,-13.079
526,-0.02674,-13.079
527,-0.02673,-13.079
528,-0.02672,-13.079
529,-0.02671,-13.079
530,-0.0267,-13.079
531,-0.02669,-13.079
532,-0.02668,-13.079
533,-0.02667,-13.079
534,-0.02666,-13.079
535,-0.02665,-13.079
536,-0.02664,-13.079
537,-0.02663,-13.079
538,-0.02662,-13.079
539,-0.02661,-13.079
540,-0.0266,-13.079
541,-0.02659,-13.079
542,-0.02658,-13.079
543,-0.02657,-13.079
544,-0.02656,-13.079
545,-0.02655,-13.079
546,-0.02654,-13.079
547,-0.02653,-13.079
548,-0.02652,-13.079
549,-0.02651,-13.079
550,-0.0265,-13.079
551,-0.02649,-13.079
552,-0.02648,-13.079
553,-0.02647,-13.079
554,-0.02646,-13.079
555,-0.02645,-13.079
556,-0.02644,-13.079
557,-0.02643,-13.079
558,-0.02642,-13.079
559,-0.02641,-13.079
560,-0.0264,-13.079
561,-0.02639,-13.079
562,-0.02638,-13.079
563,-0.02637,-13.079
564,-0.02636,-13.079
565,-0.02635,-13.079
566,-0.02634,-13.079
567,-0.02633,-13.079
568,-0.02632,-13.079
569,-0.02631,-13.079
570,-0.0263,-13.079
571,-0.02629,-13.079
572,-0.02628,-13.079
573,-0.02627,-13.079
574,-0.02626,-13.079
575,-0.02625,-13.079
576,-0.02624,-13.079
577,-0.02623,-13.079
578,-0.02622,-13.079
579,-0.02621,-13.079
580,-0.0262,-13.079
581,-0.02619,-13.079
582,-0.02618,-13.079
583,-0.02617,-13.079
584,-0.02616,-13.079
585,-0.02615,-13.079
586,-0.02614,-13.079
587,-0.02613,-13.079
588,-0.02612,-13.079
589,-0.02611,-13.079
590,-0.0261,-13.079
591,-0.02609,-13.079
592,-0.02608,-13.079
593,-0.02607,-13.079
594,-0.02606,-13.079
595,-0.02605,-13.079
596,-0.02604,-13.079
597,-0.02603,-13.079
598,-0.02602,-13.079
599,-0.02601,-13.079
600,-0.026,-13.079
601,-0.02599,-13.079
602,-0.02598,-13.079
603,-0.02597,-13.079
604,-0.02596,-13.079
605,-0.02595,-13.079
606,-0.02594,-13.079
607,-0.02593,-13.079
608,-0.02592,-13.079
609,-0.02591,-13.079
610,-0.0259,-13.079
611,-0.02589,-13.079
612,-0.02588,-13.079
613,-0.02587,-13.079
614,-0.02586,-13.079
615,-0.02585,-13.079
616,-0.02584,-13.079
617,-0.02583,-13.079
618,-0.02582,-13.079
619,-0.02581,-13.079
620,-0.0258,-13.079
621,-0.02579,-13.079
622,-0.02578,-13.079
623,-0.02577,-13.079
624,-0.02576,-13.079
625,-0.02575,-13.079
626,-0.02574,-13.079
627,-0.02573,-13.079
628,-0.02572,-13.079
629,-0.02571,-13.079
630,-0.0257,-13.079
631,-0.02569,-13.079
632,-0.02568,-13.079
633,-0.02567,-13.079
634,-0.02566,-13.079
635,-0.02565,-13.079
636,-0.02564,-13.079
637,-0.02563,-13.079
638,-0.02562,-13.079
639,-0.02561,-13.079
640,-0.0256,-13.079
641,-0.02559,-13.079
642,-0.02558,-13.079
643,-0.02557,-13.079
644,-0.02556,-13.079
645,-0.02555,-13.0957
646,-0.02554,-13.079
647,-0.02553,-13.079
648,-0.02552,-13.079
649,-0.02551,-13.079
650,-0.0255,-13.079
651,-0.02549,-13.079
652,-0.02548,-13.079
653,-0.02547,-13.0957
654,-0.02546,-13.079
655,-0.02545,-13.079
656,-0.02544,-13.079
657,-0.02543,-13.079
658,-0.02542,-13.079
659,-0.02541,-13.079
660,-0.0254,-13.079
661,-0.02539,-13.0957
662,-0.02538,-13.079
663,-0.02537,-13.079
664,-0.02536,-13.1124
665,-0.02535,-13.0623
666,-0.02534,-13.1124
667,-0.02533,-13.079
668,-0.02532,-13.0957
669,-0.02531,-13.0957
670,-0.0253,-13.0957
671,-0.02529,-13.0957
672,-0.02528,-13.0957
673,-0.02527,-13.0957
674,-0.02526,-13.0957
675,-0.02525,-13.079
676,-0.02524,-13.0957
677,-0.02523,-13.0623
678,-0.02522,-13.0957
679,-0.02521,-13.079
680,-0.0252,-13.079
681,-0.02519,-13.0957
682,-0.02518,-13.0957
683,-0.02517,-13.0957
684,-0.02516,-13.0957
685,-0.02515,-13.1124
686,-0.02514,-13.079
687,-0.02513,-13.0957
688,-0.02512,-13.0957
689,-0.02511,-13.0957
690,-0.0251,-13.0957
691,-0.02509,-13.0957
692,-0.02508,-13.0957
693,-0.02507,-13.0957
694,-0.02506,-13.0957
695,-0.02505,-13.079
696,-0.02504,-13.0957
697,-0.02503,-13.0957
698,-0.02502,-13.0957
699,-0.02501,-13.0957
700,-0.025,-13.0957
701,-0.02499,-13.0957
702,-0.02498,-13.0957
703,-0.02497,-13.0957
704,-0.02496,-13.1124
705,-0.02495,-13.079
706,-0.02494,-13.0957
707,-0.02493,-13.0957
708,-0.02492,-13.0957
709,-0.02491,-13.0957
710,-0.0249,-13.0957
711,-0.02489,-13.0957
712,-0.02488,-13.0957
713,-0.02487,-13.0957
714,-0.02486,-13.0957
715,-0.02485,-13.0957
716,-0.02484,-13.0957
717,-0.02483,-13.0957
718,-0.02482,-13.0957
719,-0.02481,-13.0957
720,-0.0248,-13.0957
721,-0.02479,-13.0957
722,-0.02478,-13.0957
723,-0.02477,-13.0957
724,-0.02476,-13.0957
725,-0.02475,-13.0957
726,-0.02474,-13.0957
727,-0.02473,-13.0957
728,-0.02472,-13.0957
729,-0.02471,-13.0957
730,-0.0247,-13.0957
731,-0.02469,-13.0957
732,-0.02468,-13.0957
733,-0.02467,-13.0957
734,-0.02466,-13.0957
735,-0.02465,-13.0957
736,-0.02464,-13.0957
737,-0.02463,-13.0957
738,-0.02462,-13.0957
739,-0.02461,-13.0957
740,-0.0246,-13.0957
741,-0.02459,-13.0957
742,-0.02458,-13.0957
743,-0.02457,-13.0957
744,-0.02456,-13.0957
745,-0.02455,-13.0957
746,-0.02454,-13.0957
747,-0.02453,-13.0957
748,-0.02452,-13.0957
749,-0.02451,-13.0957
750,-0.0245,-13.0957
751,-0.02449,-13.0957
752,-0.02448,-13.0957
753,-0.02447,-13.0957
754,-0.02446,-13.0957
755,-0.02445,-13.0957
756,-0.02444,-13.0957
757,-0.02443,-13.0957
758,-0.02442,-13.0957
759,-0.02441,-13.0957
760,-0.0244,-13.0957
761,-0.02439,-13.0957
762,-0.02438,-13.0957
763,-0.02437,-13.0957
764,-0.02436,-13.0957
765,-0.02435,-13.0957
766,-0.02434,-13.0957
767,-0.02433,-13.0957
768,-0.02432,-13.0957
769,-0.02431,-13.0957
770,-0.0243,-13.0957
771,-0.02429,-13.0957
772,-0.02428,-13.0957
773,-0.02427,-13.0957
774,-0.02426,-13.0957
775,-0.02425,-13.0957
776,-0.02424,-13.0957
777,-0.02423,-13.0957
778,-0.02422,-13.0957
779,-0.02421,-13.0957
780,-0.0242,-13.0957
781,-0.02419,-13.0957
782,-0.02418,-13.0957
783,-0.02417,-13.0957
784,-0.02416,-13.0957
785,-0.02415,-13.0957
786,-0.02414,-13.0957
787,-0.02413,-13.0957
788,-0.02412,-13.0957
789,-0.02411,-13.0957
790,-0.0241,-13.0957
791,-0.02409,-13.0957
792,-0.02408,-13.0957
793,-0.02407,-13.0957
794,-0.02406,-13.0957
795,-0.02405,-13.0957
796,-0.02404,-13.0957
797,-0.02403,-13.0957
798,-0.02402,-13.0957
799,-0.02401,-13.0957
800,-0.024,-13.0957
801,-0.02399,-13.0957
802,-0.02398,-13.0957
803,-0.02397,-13.0957
804,-0.02396,-13.0957
805,-0.02395,-13.0957
806,-0.02394,-13.0957
807,-0.02393,-13.0957
808,-0.02392,-13.0957
809,-0.02391,-13.0957
810,-0.0239,-13.0957
811,-0.02389,-13.0957
812,-0.02388,-13.0957
813,-0.02387,-13.0957
814,-0.02386,-13.0957
815,-0.02385,-13.0957
816,-0.02384,-13.0957
817,-0.02383,-13.0957
818,-0.02382,-13.0957
819,-0.02381,-13.0957
820,-0.0238,-13.0957
821,-0.02379,-13.0957
822,-0.02378,-13.0957
823,-0.02377,-13.0957
824,-0.02376,-13.0957
825,-0.02375,-13.0957
826,-0.02374,-13.0957
827,-0.02373,-13.0957
828,-0.02372,-13.0957
829,-0.02371,-13.0957
830,-0.0237,-13.0957
831,-0.02369,-13.0957
832,-0.02368,-13.0957
833,-0.02367,-13.0957
834,-0.02366,-13.0957
835,-0.02365,-13.0957
836,-0.02364,-13.0957
837,-0.02363,-13.0957
838,-0.02362,-13.0957
839,-0.02361,-13.0957
840,-0.0236,-13.0957
841,-0.02359,-13.0957
842,-0.02358,-13.0957
843,-0.02357,-13.0957
844,-0.02356,-13.0957
845,-0.02355,-13.0957
846,-0.02354,-13.0957
847,-0.02353,-13.0957
848,-0.02352,-13.0957
849,-0.02351,-13.0957
850,-0.0235,-13.0957
851,-0.02349,-13.0957
852,-0.02348,-13.0957
853,-0.02347,-13.0957
854,-0.02346,-13.0957
855,-0.02345,-13.0957
856,-0.02344,-13.0957
857,-0.02343,-13.0957
858,-0.02342,-13.0957
859,-0.02341,-13.0957
860,-0.0234,-13.0957
861,-0.02339,-13.0957
862,-0.02338,-13.0957
863,-0.02337,-13.0957
864,-0.02336,-13.0957
865,-0.02335,-13.0957
866,-0.02334,-13.0957
867,-0.02333,-13.0957
868,-0.02332,-13.0957
869,-0.02331,-13.0957
870,-0.0233,-13.0957
871,-0.02329,-13.0957
872,-0.02328,-13.0957
873,-0.02327,-13.0957
874,-0.02326,-13.0957
875,-0.02325,-13.0957
876,-0.02324,-13.0957
877,-0.02323,-13.0957
878,-0.02322,-13.0957
879,-0.02321,-13.0957
880,-0.0232,-13.0957
881,-0.02319,-13.0957
882,-0.02318,-13.0957
883,-0.02317,-13.0957
884,-0.02316,-13.0957
885,-0.02315,-13.0957
886,-0.02314,-13.0957
887,-0.02313,-13.0957
888,-0.02312,-13.0957
889,-0.02311,-13.1124
890,-0.0231,-13.1124
891,-0.02309,-13.0957
892,-0.02308,-13.0957
893,-0.02307,-13.0957
894,-0.02306,-13.0957
895,-0.02305,-13.0957
896,-0.02304,-13.0957
897,-0.02303,-13.0957
898,-0.02302,-13.0957
899,-0.02301,-13.0957
900,-0.023,-13.0957
901,-0.02299,-13.0957
902,-0.02298,-13.0957
903,-0.02297,-13.0957
904,-0.02296,-13.1124
905,-0.02295,-13.1124
906,-0.02294,-13.0957
907,-0.02293,-13.0957
908,-0.02292,-13.0957
909,-0.02291,-13.0957
910,-0.0229,-13.0957
911,-0.02289,-13.0957
912,-0.02288,-13.0957
913,-0.02287,-13.0957
914,-0.02286,-13.0957
915,-0.02285,-13.0957
916,-0.02284,-13.0957
917,-0.02283,-13.0957
918,-0.02282,-13.0957
919,-0.02281,-13.0957
920,-0.0228,-13.0957
921,-0.02279,-13.0957
922,-0.02278,-13.0957
923,-0.02277,-13.0957
924,-0.02276,-13.0957
925,-0.02275,-13.0957
926,-0.02274,-13.0957
927,-0.02273,-13.0957
928,-0.02272,-13.0957
929,-0.02271,-13.0957
930,-0.0227,-13.1124
931,-0.02269,-13.1124
932,-0.02268,-13.0957
933,-0.02267,-13.1124
934,-0.02266,-13.0957
935,-0.02265,-13.0957
936,-0.02264,-13.1124
937,-0.02263,-13.1124
938,-0.02262,-13.0957
939,-0.02261,-13.0957
940,-0.0226,-13.0957
941,-0.02259,-13.1291
942,-0.02258,-13.1291
943,-0.02257,-13.0957
944,-0.02256,-13.1124
945,-0.02255,-13.1124
946,-0.02254,-13.1124
947,-0.02253,-13.0957
948,-0.02252,-13.1124
949,-0.02251,-13.1124
950,-0.0225,-13.0957
951,-0.02249,-13.1124
952,-0.02248,-13.1124
953,-0.02247,-13.1124
954,-0.02246,-13.1124
955,-0.02245,-13.1124
956,-0.02244,-13.1124
957,-0.02243,-13.0957
958,-0.02242,-13.0957
959,-0.02241,-13.0957
960,-0.0224,-13.0957
961,-0.02239,-13.0957
962,-0.02238,-13.0957
963,-0.02237,-13.1291
964,-0.02236,-13.0957
965,-0.02235,-13.0957
966,-0.02234,-13.0957
967,-0.02233,-13.0957
968,-0.02232,-13.0957
969,-0.02231,-13.1124
970,-0.0223,-13.1124
971,-0.02229,-13.1124
972,-0.02228,-13.1124
973,-0.02227,-13.0957
974,-0.02226,-13.1124
975,-0.02225,-13.1124
976,-0.02224,-13.1124
977,-0.02223,-13.1124
978,-0.02222,-13.1124
979,-0.02221,-13.1124
980,-0.0222,-13.1124
981,-0.02219,-13.079
982,-0.02218,-13.1124
983,-0.02217,-13.1124
984,-0.02216,-13.1124
985,-0.02215,-13.1124
986,-0.02214,-13.1124
987,-0.02213,-13.1124
988,-0.02212,-13.079
989,-0.02211,-13.1124
990,-0.0221,-13.1124
991,-0.02209,-13.1124
992,-0.02208,-13.1124
993,-0.02207,-13.1124
994,-0.02206,-13.1124
995,-0.02205,-13.1124
996,-0.02204,-13.1124
997,-0.02203,-13.1124
998,-0.02202,-13.1124
999,-0.02201,-13.1124
1000,-0.022,-13.1124
1001,-0.02199,-13.1124
1002,-0.02198,-13.1124
1003,-0.02197,-13.1124
1004,-0.02196,-13.1124
1005,-0.02195,-13.1124
1006,-0.02194,-13.1124
1007,-0.02193,-13.1124
1008,-0.02192,-13.1124
1009,-0.02191,-13.1124
1010,-0.0219,-13.1124
1011,-0.02189,-13.1124
1012,-0.02188,-13.1124
1013,-0.02187,-13.1124
1014,-0.02186,-13.1124
1015,-0.02185,-13.1124
1016,-0.02184,-13.1124
1017,-0.02183,-13.1124
1018,-0.02182,-13.1124
1019,-0.02181,-13.1124
1020,-0.0218,-13.1124
1021,-0.02179,-13.1124
1022,-0.02178,-13.1124
1023,-0.02177,-13.1124
1024,-0.02176,-13.1124
1025,-0.02175,-13.1124
1026,-0.02174,-13.1124
1027,-0.02173,-13.1124
1028,-0.02172,-13.1124
1029,-0.02171,-13.1124
1030,-0.0217,-13.1124
1031,-0.02169,-13.1124
1032,-0.02168,-13.1124
1033,-0.02167,-13.1124
1034,-0.02166,-13.1124
1035,-0.02165,-13.1124
1036,-0.02164,-13.1124
1037,-0.02163,-13.1124
1038,-0.02162,-13.1124
1039,-0.02161,-13.1124
1040,-0.0216,-13.1124
1041,-0.02159,-13.1124
1042,-0.02158,-13.1124
1043,-0.02157,-13.1124
1044,-0.02156,-13.1124
1045,-0.02155,-13.1124
1046,-0.02154,-13.1124
1047,-0.02153,-13.1124
1048,-0.02152,-13.1124
1049,-0.02151,-13.1124
1050,-0.0215,-13.1124
1051,-0.02149,-13.1124
1052,-0.02148,-13.1124
1053,-0.02147,-13.1124
1054,-0.02146,-13.1124
1055,-0.02145,-13.1124
1056,-0.02144,-13.1124
1057,-0.02143,-13.1124
1058,-0.02142,-13.1124
1059,-0.02141,-13.1124
1060,-0.0214,-13.1124
1061,-0.02139,-13.1124
1062,-0.02138,-13.1124
1063,-0.02137,-13.1124
1064,-0.02136,-13.1124
1065,-0.02135,-13.1124
1066,-0.02134,-13.1124
1067,-0.02133,-13.1124
1068,-0.02132,-13.1124
1069,-0.02131,-13.1124
1070,-0.0213,-13.1124
1071,-0.02129,-13.1124
1072,-0.02128,-13.1124
1073,-0.02127,-13.1124
1074,-0.02126,-13.1124
1075,-0.02125,-13.1124
1076,-0.02124,-13.1124
1077,-0.02123,-13.1124
1078,-0.02122,-13.1124
1079,-0.02121,-13.1124
1080,-0.0212,-13.1124
1081,-0.02119,-13.1124
1082,-0.02118,-13.1124
1083,-0.02117,-13.1124
1084,-0.02116,-13.1124
1085,-0.02115,-13.1124
1086,-0.02114,-13.1124
1087,-0.02113,-13.1124
1088,-0.02112,-13.1124
1089,-0.02111,-13.1124
1090,-0.0211,-13.1124
1091,-0.02109,-13.1124
1092,-0.02108,-13.1124
1093,-0.02107,-13.1124
1094,-0.02106,-13.1124
1095,-0.02105,-13.1124
1096,-0.02104,-13.1124
1097,-0.02103,-13.1124
1098,-0.02102,-13.1124
1099,-0.02101,-13.1124
1100,-0.021,-13.1124
1101,-0.02099,-13.1124
1102,-0.02098,-13.1124
1103,-0.02097,-13.1124
1104,-0.02096,-13.1124
1105,-0.02095,-13.1124
1106,-0.02094,-13.1124
1107,-0.02093,-13.1124
1108,-0.02092,-13.1124
1109,-0.02091,-13.1124
1110,-0.0209,-13.1124
1111,-0.02089,-13.1124
1112,-0.02088,-13.1124
1113,-0.02087,-13.1124
1114,-0.02086,-13.1124
1115,-0.02085,-13.1124
1116,-0.02084,-13.1124
1117,-0.02083,-13.1124
1118,-0.02082,-13.1124
1119,-0.02081,-13.1124
1120,-0.0208,-13.0957
1121,-0.02079,-13.0957
1122,-0.02078,-13.0957
1123,-0.02077,-13.0957
1124,-0.02076,-13.0957
1125,-0.02075,-13.0957
1126,-0.02074,-13.0957
1127,-0.02073,-13.0957
1128,-0.02072,-13.0957
1129,-0.02071,-13.0957
1130,-0.0207,-13.0957
1131,-0.02069,-13.0957
1132,-0.02068,-13.0957
1133,-0.02067,-13.0957
1134,-0.02066,-13.1124
1135,-0.02065,-13.1124
1136,-0.02064,-13.0957
1137,-0.02063,-13.0957
1138,-0.02062,-13.0957
1139,-0.02061,-13.0957
1140,-0.0206,-13.1124
1141,-0.02059,-13.1124
1142,-0.02058,-13.1124
1143,-0.02057,-13.0957
1144,-0.02056,-13.0957
1145,-0.02055,-13.0957
1146,-0.02054,-13.1124
1147,-0.02053,-13.1124
1148,-0.02052,-13.1124
1149,-0.02051,-13.1124
1150,-0.0205,-13.1124
1151,-0.02049,-13.1124
1152,-0.02048,-13.1124
1153,-0.02047,-13.1124
1154,-0.02046,-13.1124
1155,-0.02045,-13.1124
1156,-0.02044,-13.1124
1157,-0.02043,-13.1124
1158,-0.02042,-13.1124
1159,-0.02041,-13.1124
1160,-0.0204,-13.1124
1161,-0.02039,-13.1124
1162,-0.02038,-13.1124
1163,-0.02037,-13.1124
1164,-0.02036,-13.1124
1165,-0.02035,-13.1124
1166,-0.02034,-13.1124
1167,-0.02033,-13.1124
1168,-0.02032,-13.1124
1169,-0.02031,-13.1124
1170,-0.0203,-13.1124
1171,-0.02029,-13.1124
1172,-0.02028,-13.1124
1173,-0.02027,-13.1124
1174,-0.02026,-13.1124
1175,-0.02025,-13.1124
1176,-0.02024,-13.1124
1177,-0.02023,-13.1124
1178,-0.02022,-13.1124
1179,-0.02021,-13.1124
1180,-0.0202,-13.1124
1181,-0.02019,-13.1124
1182,-0.02018,-13.1124
1183,-0.02017,-13.1124
1184,-0.02016,-13.1124
1185,-0.02015,-13.1124
1186,-0.02014,-13.1124
1187,-0.02013,-13.0957
1188,-0.02012,-13.1291
1189,-0.02011,-13.1124
1190,-0.0201,-13.1124
1191,-0.02009,-13.1124
1192,-0.02008,-13.1124
1193,-0.02007,-13.1124
1194,-0.02006,-13.1124
1195,-0.02005,-13.1124
1196,-0.02004,-13.1124
1197,-0.02003,-13.1124
1198,-0.02002,-13.1124
1199,-0.02001,-13.1124
1200,-0.02,-13.1124
1201,-0.01999,-13.1124
1202,-0.01998,-13.1124
1203,-0.01997,-13.1124
1204,-0.01996,-13.1124
1205,-0.01995,-13.1124
1206,-0.01994,-13.1124
1207,-0.01993,-13.1124
1208,-0.01992,-13.1124
1209,-0.01991,-13.1124
1210,-0.0199,-13.1124
1211,-0.01989,-13.1124
1212,-0.01988,-13.1124
1213,-0.01987,-13.1124
1214,-0.01986,-13.1124
1215,-0.01985,-13.1124
1216,-0.01984,-13.1124
1217,-0.01983,-13.1124
1218,-0.01982,-13.1124
1219,-0.01981,-13.1124
1220,-0.0198,-13.1124
1221,-0.01979,-13.1124
1222,-0.01978,-13.1124
1223,-0.01977,-13.1124
1224,-0.01976,-13.1124
1225,-0.01975,-13.1124
1226,-0.01974,-13.1124
1227,-0.01973,-13.1124
1228,-0.01972,-13.1124
1229,-0.01971,-13.1124
1230,-0.0197,-13.1124
1231,-0.01969,-13.1124
1232,-0.01968,-13.1124
1233,-0.01967,-13.1124
1234,-0.01966,-13.1124
1235,-0.01965,-13.1124
1236,-0.01964,-13.1124
1237,-0.01963,-13.1124
1238,-0.01962,-13.1124
1239,-0.01961,-13.1124
1240,-0.0196,-13.1124
1241,-0.01959,-13.1124
1242,-0.01958,-13.1124
1243,-0.01957,-13.1124
1244,-0.01956,-13.1124
1245,-0.01955,-13.1124
1246,-0.01954,-13.1124
1247,-0.01953,-13.1124
1248,-0.01952,-13.1124
1249,-0.01951,-13.1124
1250,-0.0195,-13.1124
1251,-0.01949,-13.1124
1252,-0.01948,-13.1124
1253,-0.01947,-13.1124
1254,-0.01946,-13.1124
1255,-0.01945,-13.1124
1256,-0.01944,-13.1124
1257,-0.01943,-13.1124
1258,-0.01942,-13.1124
1259,-0.01941,-13.1124
1260,-0.0194,-13.1124
1261,-0.01939,-13.1124
1262,-0.01938,-13.1124
1263,-0.01937,-13.1124
1264,-0.01936,-13.1124
1265,-0.01935,-13.1124
1266,-0.01934,-13.1124
1267,-0.01933,-13.1124
1268,-0.01932,-13.1124
1269,-0.01931,-13.1124
1270,-0.0193,-13.1124
1271,-0.01929,-13.1124
1272,-0.01928,-13.1124
1273,-0.01927,-13.1124
1274,-0.01926,-13.1124
1275,-0.01925,-13.1124
1276,-0.01924,-13.1124
1277,-0.01923,-13.1124
1278,-0.01922,-13.1124
1279,-0.01921,-13.1124
1280,-0.0192,-13.1124
1281,-0.01919,-13.1124
1282,-0.01918,-13.1124
1283,-0.01917,-13.1124
1284,-0.01916,-13.1124
1285,-0.01915,-13.1124
1286,-0.01914,-13.1124
1287,-0.01913,-13.1124
1288,-0.01912,-13.1124
1289,-0.01911,-13.1124
1290,-0.0191,-13.1124
1291,-0.01909,-13.1124
1292,-0.01908,-13.1124
1293,-0.01907,-13.1124
1294,-0.01906,-13.1124
1295,-0.01905,-13.1124
1296,-0.01904,-13.1124
1297,-0.01903,-13.1124
1298,-0.01902,-13.1124
1299,-0.01901,-13.1124
1300,-0.019,-13.1124
1301,-0.01899,-13.1124
1302,-0.01898,-13.1124
1303,-0.01897,-13.1124
1304,-0.01896,-13.1124
1305,-0.01895,-13.1124
1306,-0.01894,-13.1124
1307,-0.01893,-13.1124
1308,-0.01892,-13.1124
1309,-0.01891,-13.1124
1310,-0.0189,-13.1291
1311,-0.01889,-13.1291
1312,-0.01888,-13.1291
1313,-0.01887,-13.1291
1314,-0.01886,-13.1291
1315,-0.01885,-13.1291
1316,-0.01884,-13.1291
1317,-0.01883,-13.1291
1318,-0.01882,-13.1291
1319,-0.01881,-13.1291
1320,-0.0188,-13.1291
1321,-0.01879,-13.1291
1322,-0.01878,-13.1291
1323,-0.01877,-13.1291
1324,-0.01876,-13.1291
1325,-0.01875,-13.1291
1326,-0.01874,-13.1291
1327,-0.01873,-13.1291
1328,-0.01872,-13.1291
1329,-0.01871,-13.1291
1330,-0.0187,-13.1291
1331,-0.01869,-13.1291
1332,-0.01868,-13.1291
1333,-0.01867,-13.1291
1334,-0.01866,-13.1291
1335,-0.01865,-13.1291
1336,-0.01864,-13.1291
1337,-0.01863,-13.1291
1338,-0.01862,-13.1291
1339,-0.01861,-13.1291
1340,-0.0186,-13.1291
1341,-0.01859,-13.1291
1342,-0.01858,-13.1291
1343,-0.01857,-13.1291
1344,-0.01856,-13.1291
1345,-0.01855,-13.1291
1346,-0.01854,-13.1291
1347,-0.01853,-13.1291
1348,-0.01852,-13.1291
1349,-0.01851,-13.1291
1350,-0.0185,-13.1291
1351,-0.01849,-13.1291
1352,-0.01848,-13.1291
1353,-0.01847,-13.1291
1354,-0.01846,-13.1291
1355,-0.01845,-13.1291
1356,-0.01844,-13.1291
1357,-0.01843,-13.1291
1358,-0.01842,-13.1291
1359,-0.01841,-13.1291
1360,-0.0184,-13.1291
1361,-0.01839,-13.1291
1362,-0.01838,-13.1291
1363,-0.01837,-13.1291
1364,-0.01836,-13.1291
1365,-0.01835,-13.1291
1366,-0.01834,-13.1291
1367,-0.01833,-13.1291
1368,-0.01832,-13.1291
1369,-0.01831,-13.1291
1370,-0.0183,-13.1291
1371,-0.01829,-13.1291
1372,-0.01828,-13.1291
1373,-0.01827,-13.1291
1374,-0.01826,-13.1291
1375,-0.01825,-13.1291
1376,-0.01824,-13.1291
1377,-0.01823,-13.1291
1378,-0.01822,-13.1291
1379,-0.01821,-13.1291
1380,-0.0182,-13.1291
1381,-0.01819,-13.1291
1382,-0.01818,-13.1291
1383,-0.01817,-13.1291
1384,-0.01816,-13.1291
1385,-0.01815,-13.1291
1386,-0.01814,-13.1291
1387,-0.01813,-13.1291
1388,-0.01812,-13.1291
1389,-0.01811,-13.1291
1390,-0.0181,-13.1291
1391,-0.01809,-13.1291
1392,-0.01808,-13.1291
1393,-0.01807,-13.1291
1394,-0.01806,-13.1291
1395,-0.01805,-13.1291
1396,-0.01804,-13.1291
1397,-0.01803,-13.1291
1398,-0.01802,-13.1291
1399,-0.01801,-13.1291
1400,-0.018,-13.1291
1401,-0.01799,-13.1291
1402,-0.01798,-13.1291
1403,-0.01797,-13.1291
1404,-0.01796,-13.1291
1405,-0.01795,-13.1291
1406,-0.01794,-13.1291
1407,-0.01793,-13.1291
1408,-0.01792,-13.1291
1409,-0.01791,-13.1291
1410,-0.0179,-13.1291
1411,-0.01789,-13.1291
1412,-0.01788,-13.1291
1413,-0.01787,-13.1291
1414,-0.01786,-13.1291
1415,-0.01785,-13.1291
1416,-0.01784,-13.1291
1417,-0.01783,-13.1291
1418,-0.01782,-13.1291
1419,-0.01781,-13.1291
1420,-0.0178,-13.1291
1421,-0.01779,-13.1291
1422,-0.01778,-13.1291
1423,-0.01777,-13.1291
1424,-0.01776,-13.1291
1425,-0.01775,-13.1291
1426,-0.01774,-13.1291
1427,-0.01773,-13.1291
1428,-0.01772,-13.1291
1429,-0.01771,-13.1291
1430,-0.0177,-13.1291
1431,-0.01769,-13.1291
1432,-0.01768,-13.1291
1433,-0.01767,-13.1458
1434,-0.01766,-13.1124
1435,-0.01765,-13.1291
1436,-0.01764,-13.1291
1437,-0.01763,-13.1291
1438,-0.01762,-13.1291
1439,-0.01761,-13.0957
1440,-0.0176,-13.1291
1441,-0.01759,-13.1291
1442,-0.01758,-13.1291
1443,-0.01757,-13.1124
1444,-0.01756,-13.1124
1445,-0.01755,-13.1291
1446,-0.01754,-13.1291
1447,-0.01753,-13.1291
1448,-0.01752,-13.1124
1449,-0.01751,-13.1124
1450,-0.0175,-13.1124
1451,-0.01749,-13.1291
1452,-0.01748,-13.1291
1453,-0.01747,-13.1291
1454,-0.01746,-13.1124
1455,-0.01745,-13.1124
1456,-0.01744,-13.1124
1457,-0.01743,-13.1124
1458,-0.01742,-13.1124
1459,-0.01741,-13.1124
1460,-0.0174,-13.1124
1461,-0.01739,-13.1124
1462,-0.01738,-13.1124
1463,-0.01737,-13.1124
1464,-0.01736,-13.1124
1465,-0.01735,-13.1124
1466,-0.01734,-13.1124
1467,-0.01733,-13.1124
1468,-0.01732,-13.1124
1469,-0.01731,-13.1124
1470,-0.0173,-13.1124
1471,-0.01729,-13.1124
1472,-0.01728,-13.1124
1473,-0.01727,-13.1124
1474,-0.01726,-13.1124
1475,-0.01725,-13.1124
1476,-0.01724,-13.1124
1477,-0.01723,-13.1124
1478,-0.01722,-13.1124
1479,-0.01721,-13.1124
1480,-0.0172,-13.1124
1481,-0.01719,-13.1124
1482,-0.01718,-13.1124
1483,-0.01717,-13.1124
1484,-0.01716,-13.1124
1485,-0.01715,-13.1124
1486,-0.01714,-13.1124
1487,-0.01713,-13.1124
1488,-0.01712,-13.1124
1489,-0.01711,-13.1124
1490,-0.0171,-13.1124
1491,-0.01709,-13.1124
1492,-0.01708,-13.1124
1493,-0.01707,-13.1124
1494,-0.01706,-13.1124
1495,-0.01705,-13.1124
1496,-0.01704,-13.1124
1497,-0.01703,-13.1124
1498,-0.01702,-13.1124
1499,-0.01701,-13.1124
1500,-0.017,-13.1124
1501,-0.01699,-13.1124
1502,-0.01698,-13.1124
1503,-0.01697,-13.1124
1504,-0.01696,-13.1124
1505,-0.01695,-13.1124
1506,-0.01694,-13.1124
1507,-0.01693,-13.1124
1508,-0.01692,-13.1124
1509,-0.01691,-13.1124
1510,-0.0169,-13.1124
1511,-0.01689,-13.1124
1512,-0.01688,-13.1124
1513,-0.01687,-13.1124
1514,-0.01686,-13.1124
1515,-0.01685,-13.1124
1516,-0.01684,-13.1124
1517,-0.01683,-13.1124
1518,-0.01682,-13.1124
1519,-0.01681,-13.1124
1520,-0.0168,-13.1124
1521,-0.01679,-13.1124
1522,-0.01678,-13.1124
1523,-0.01677,-13.1124
1524,-0.01676,-13.1124
1525,-0.01675,-13.1124
1526,-0.01674,-13.1124
1527,-0.01673,-13.1124
1528,-0.01672,-13.1124
1529,-0.01671,-13.1124
1530,-0.0167,-13.1124
1531,-0.01669,-13.1124
1532,-0.01668,-13.1124
1533,-0.01667,-13.1124
1534,-0.01666,-13.1291
1535,-0.01665,-13.0957
1536,-0.01664,-13.1124
1537,-0.01663,-13.1124
1538,-0.01662,-13.0957
1539,-0.01661,-13.0957
1540,-0.0166,-13.0957
1541,-0.01659,-13.0957
1542,-0.01658,-13.1291
1543,-0.01657,-13.0957
1544,-0.01656,-13.0957
1545,-0.01655,-13.0957
1546,-0.01654,-13.0957
1547,-0.01653,-13.0957
1548,-0.01652,-13.0957
1549,-0.01651,-13.0957
1550,-0.0165,-13.0957
1551,-0.01649,-13.0957
1552,-0.01648,-13.1124
1553,-0.01647,-13.1124
1554,-0.01646,-13.0957
1555,-0.01645,-13.0957
1556,-0.01644,-13.0957
1557,-0.01643,-13.0957
1558,-0.01642,-13.0957
1559,-0.01641,-13.0957
1560,-0.0164,-13.0957
1561,-0.01639,-13.0957
1562,-0.01638,-13.0957
1563,-0.01637,-13.0957
1564,-0.01636,-13.0957
1565,-0.01635,-13.0957
1566,-0.01634,-13.0957
1567,-0.01633,-13.0957
1568,-0.01632,-13.0957
1569,-0.01631,-13.0957
1570,-0.0163,-13.0957
1571,-0.01629,-13.0957
1572,-0.01628,-13.0957
1573,-0.01627,-13.0957
1574,-0.01626,-13.0957
1575,-0.01625,-13.0957
1576,-0.01624,-13.0957
1577,-0.01623,-13.0957
1578,-0.01622,-13.0957
1579,-0.01621,-13.0957
1580,-0.0162,-13.0957
1581,-0.01619,-13.0957
1582,-0.01618,-13.0957
1583,-0.01617,-13.0957
1584,-0.01616,-13.0957
1585,-0.01615,-13.0957
1586,-0.01614,-13.0957
1587,-0.01613,-13.079
1588,-0.01612,-13.0957
1589,-0.01611,-13.0957
1590,-0.0161,-13.0957
1591,-0.01609,-13.1124
1592,-0.01608,-13.0957
1593,-0.01607,-13.079
1594,-0.01606,-13.079
1595,-0.01605,-13.0957
1596,-0.01604,-13.079
1597,-0.01603,-13.079
1598,-0.01602,-13.079
1599,-0.01601,-13.079
1600,-0.016,-13.079
1601,-0.01599,-13.079
1602,-0.01598,-13.079
1603,-0.01597,-13.079
1604,-0.01596,-13.079
1605,-0.01595,-13.079
1606,-0.01594,-13.079
1607,-0.01593,-13.079
1608,-0.01592,-13.079
1609,-0.01591,-13.079
1610,-0.0159,-13.079
1611,-0.01589,-13.079
1612,-0.01588,-13.079
1613,-0.01587,-13.079
1614,-0.01586,-13.079
1615,-0.01585,-13.079
1616,-0.01584,-13.079
1617,-0.01583,-13.079
1618,-0.01582,-13.079
1619,-0.01581,-13.079
1620,-0.0158,-13.079
1621,-0.01579,-13.079
1622,-0.01578,-13.0623
1623,-0.01577,-13.0957
1624,-0.01576,-13.079
1625,-0.01575,-13.0623
1626,-0.01574,-13.0623
1627,-0.01573,-13.0623
1628,-0.01572,-13.0623
1629,-0.01571,-13.0623
1630,-0.0157,-13.0623
1631,-0.01569,-13.0623
1632,-0.01568,-13.0623
1633,-0.01567,-13.0623
1634,-0.01566,-13.0623
1635,-0.01565,-13.0623
1636,-0.01564,-13.0623
1637,-0.01563,-13.0623
1638,-0.01562,-13.0623
1639,-0.01561,-13.0623
1640,-0.0156,-13.0623
1641,-0.01559,-13.0623
1642,-0.01558,-13.0623
1643,-0.01557,-13.0623
1644,-0.01556,-13.0623
1645,-0.01555,-13.0623
1646,-0.01554,-13.0623
1647,-0.01553,-13.0623
1648,-0.01552,-13.0623
1649,-0.01551,-13.0289
1650,-0.0155,-13.0623
1651,-0.01549,-13.0289
1652,-0.01548,-13.0289
1653,-0.01547,-13.0289
1654,-0.01546,-13.0289
1655,-0.01545,-13.0289
1656,-0.01544,-13.0289
1657,-0.01543,-13.0289
1658,-0.01542,-13.0289
1659,-0.01541,-13.0289
1660,-0.0154,-13.0289
1661,-0.01539,-13.0289
1662,-0.01538,-13.0289
1663,-0.01537,-13.0289
1664,-0.01536,-13.0122
1665,-0.01535,-13.0122
1666,-0.01534,-13.0122
1667,-0.01533,-13.0122
1668,-0.01532,-13.0122
1669,-0.01531,-13.0122
1670,-0.0153,-13.0122
1671,-0.01529,-13.0122
1672,-0.01528,-12.9955
1673,-0.01527,-12.9955
1674,-0.01526,-12.9955
1675,-0.01525,-12.628
1676,-0.01524,-14.1146
1677,-0.01523,10.2728
1678,-0.01522,10.3062
1679,-0.01521,10.7739
1680,-0.0152,10.7405
1681,-0.01519,10.7071
1682,-0.01518,10.6904
1683,-0.01517,10.9075
1684,-0.01516,10.9743
1685,-0.01515,10.7405
1686,-0.01514,10.9743
1687,-0.01513,11.1247
1688,-0.01512,10.9242
1689,-0.01511,11.0913
1690,-0.0151,11.275
1691,-0.01509,11.1247
1692,-0.01508,11.2082
1693,-0.01507,11.4253
1694,-0.01506,11.2917
1695,-0.01505,11.3251
1696,-0.01504,11.5757
1697,-0.01503,11.4755
1698,-0.01502,11.4253
1699,-0.01501,11.6592
1700,-0.015,11.6425
1701,-0.01499,11.5089
1702,-0.01498,11.7761
1703,-0.01497,11.7928
1704,-0.01496,11.5924
1705,-0.01495,11.8596
1706,-0.01494,11.893
1707,-0.01493,11.6759
1708,-0.01492,11.9265
1709,-0.01491,11.9766
1710,-0.0149,11.7594
1711,-0.01489,11.9432
1712,-0.01488,12.0601
1713,-0.01487,11.8763
1714,-0.01486,11.9599
1715,-0.01485,12.1269
1716,-0.01484,11.9599
1717,-0.01483,11.9766
1718,-0.01482,12.177
1719,-0.01481,12.0601
1720,-0.0148,11.9933
1721,-0.01479,12.2104
1722,-0.01478,12.1436
1723,-0.01477,12.01
1724,-0.01476,12.2438
1725,-0.01475,12.2271
1726,-0.01474,12.0267
1727,-0.01473,12.2605
1728,-0.01472,12.2772
1729,-0.01471,12.0267
1730,-0.0147,12.2605
1731,-0.01469,12.3608
1732,-0.01468,12.1102
1733,-0.01467,12.3106
1734,-0.01466,12.3942
1735,-0.01465,12.1436
1736,-0.01464,12.3106
1737,-0.01463,12.4276
1738,-0.01462,12.2104
1739,-0.01461,12.2605
1740,-0.0146,12.4443
1741,-0.01459,12.2605
1742,-0.01458,12.2438
1743,-0.01457,12.4443
1744,-0.01456,12.3608
1745,-0.01455,12.2271
1746,-0.01454,12.4443
1747,-0.01453,12.3942
1748,-0.01452,3.77504
1749,-0.01451,-14.9498
1750,-0.0145,-13.5133
1751,-0.01449,-13.5133
1752,-0.01448,-13.4298
1753,-0.01447,-13.3296
1754,-0.01446,-13.2461
1755,-0.01445,-13.1959
1756,-0.01444,-13.1291
1757,-0.01443,-13.1124
1758,-0.01442,-13.079
1759,-0.01441,-13.079
1760,-0.0144,-13.0623
1761,-0.01439,-13.0623
1762,-0.01438,-13.0289
1763,-0.01437,-13.0289
1764,-0.01436,-13.0289
1765,-0.01435,-13.0289
1766,-0.01434,-13.0122
1767,-0.01433,-13.0122
1768,-0.01432,-13.0122
1769,-0.01431,-13.0122
1770,-0.0143,-13.0122
1771,-0.01429,-13.0122
1772,-0.01428,-13.0122
1773,-0.01427,-13.0122
1774,-0.01426,-13.0122
1775,-0.01425,-13.0122
1776,-0.01424,-13.0122
1777,-0.01423,-13.0122
1778,-0.01422,-13.0122
1779,-0.01421,-13.0122
1780,-0.0142,-13.0122
1781,-0.01419,-13.0122
1782,-0.01418,-13.0122
1783,-0.01417,-13.0122
1784,-0.01416,-13.0122
1785,-0.01415,-13.0289
1786,-0.01414,-13.0289
1787,-0.01413,-13.0122
1788,-0.01412,-13.0122
1789,-0.01411,-13.0289
1790,-0.0141,-13.0289
1791,-0.01409,-13.0289
1792,-0.01408,-13.0122
1793,-0.01407,-13.0122
1794,-0.01406,-13.0122
1795,-0.01405,-13.0289
1796,-0.01404,-13.0289
1797,-0.01403,-13.0289
1798,-0.01402,-13.0122
1799,-0.01401,-13.0122
1800,-0.014,-13.0289
1801,-0.01399,-13.0289
1802,-0.01398,-13.0289
1803,-0.01397,-13.0289
1804,-0.01396,-13.0289
1805,-0.01395,-13.0289
1806,-0.01394,-13.0289
1807,-0.01393,-13.0289
1808,-0.01392,-13.0289
1809,-0.01391,-13.0289
1810,-0.0139,-13.0289
1811,-0.01389,-13.0289
1812,-0.01388,-13.0289
1813,-0.01387,-13.0289
1814,-0.01386,-13.0289
1815,-0.01385,-13.0289
1816,-0.01384,-13.0289
1817,-0.01383,-13.0289
1818,-0.01382,-13.0289
1819,-0.01381,-13.0289
1820,-0.0138,-13.0289
1821,-0.01379,-13.0289
1822,-0.01378,-13.0289
1823,-0.01377,-13.0289
1824,-0.01376,-13.0289
1825,-0.01375,-13.0289
1826,-0.01374,-13.0289
1827,-0.01373,-13.0289
1828,-0.01372,-13.0289
1829,-0.01371,-13.0289
1830,-0.0137,-13.0289
1831,-0.01369,-13.0289
1832,-0.01368,-13.0289
1833,-0.01367,-13.0289
1834,-0.01366,-13.0289
1835,-0.01365,-13.0289
1836,-0.01364,-13.0289
1837,-0.01363,-13.0289
1838,-0.01362,-13.0289
1839,-0.01361,-13.0289
1840,-0.0136,-13.0289
1841,-0.01359,-13.0289
1842,-0.01358,-13.0289
1843,-0.01357,-13.0289
1844,-0.01356,-13.0289
1845,-0.01355,-13.0289
1846,-0.01354,-13.0289
1847,-0.01353,-13.0623
1848,-0.01352,-13.0623
1849,-0.01351,-13.0289
1850,-0.0135,-13.0623
1851,-0.01349,-13.0623
1852,-0.01348,-13.0623
1853,-0.01347,-13.0623
1854,-0.01346,-13.0623
1855,-0.01345,-13.0623
1856,-0.01344,-13.0623
1857,-0.01343,-13.0623
1858,-0.01342,-13.0623
1859,-0.01341,-13.0623
1860,-0.0134,-13.0623
1861,-0.01339,-13.0623
1862,-0.01338,-13.0623
1863,-0.01337,-13.0623
1864,-0.01336,-13.0623
1865,-0.01335,-13.0623
1866,-0.01334,-13.0623
1867,-0.01333,-13.0623
1868,-0.01332,-13.0623
1869,-0.01331,-13.0623
1870,-0.0133,-13.0623
1871,-0.01329,-13.0623
1872,-0.01328,-13.0623
1873,-0.01327,-13.0623
1874,-0.01326,-13.0623
1875,-0.01325,-13.0623
1876,-0.01324,-13.0623
1877,-0.01323,-13.0623
1878,-0.01322,-13.0623
1879,-0.01321,-13.0623
1880,-0.0132,-13.0623
1881,-0.01319,-13.0623
1882,-0.01318,-13.0623
1883,-0.01317,-13.0623
1884,-0.01316,-13.0623
1885,-0.01315,-13.0623
1886,-0.01314,-13.0623
1887,-0.01313,-13.0623
1888,-0.01312,-13.0623
1889,-0.01311,-13.0623
1890,-0.0131,-13.0623
1891,-0.01309,-13.0623
1892,-0.01308,-13.0623
1893,-0.01307,-13.0623
1894,-0.01306,-13.0623
1895,-0.01305,-13.0623
1896,-0.01304,-13.0623
1897,-0.01303,-13.0623
1898,-0.01302,-13.0623
1899,-0.01301,-13.0623
1900,-0.013,-13.0623
1901,-0.01299,-13.0623
1902,-0.01298,-13.0623
1903,-0.01297,-13.0623
1904,-0.01296,-13.0623
1905,-0.01295,-13.0623
1906,-0.01294,-13.0623
1907,-0.01293,-13.0623
1908,-0.01292,-13.0623
1909,-0.01291,-13.0623
1910,-0.0129,-13.0623
1911,-0.01289,-13.0623
1912,-0.01288,-13.0623
1913,-0.01287,-13.0623
1914,-0.01286,-13.0623
1915,-0.01285,-13.0623
1916,-0.01284,-13.0623
1917,-0.01283,-13.0623
1918,-0.01282,-13.0623
1919,-0.01281,-13.0623
1920,-0.0128,-13.0623
1921,-0.01279,-13.0623
1922,-0.01278,-13.0623
1923,-0.01277,-13.0623
1924,-0.01276,-13.0623
1925,-0.01275,-13.0623
1926,-0.01274,-13.0623
1927,-0.01273,-13.0623
1928,-0.01272,-13.0623
1929,-0.01271,-13.0623
1930,-0.0127,-13.0623
1931,-0.01269,-13.0623
1932,-0.01268,-13.0623
1933,-0.01267,-13.0623
1934,-0.01266,-13.0623
1935,-0.01265,-13.0623
1936,-0.01264,-13.0623
1937,-0.01263,-13.0623
1938,-0.01262,-13.0623
1939,-0.01261,-13.0623
1940,-0.0126,-13.0623
1941,-0.01259,-13.0623
1942,-0.01258,-13.0623
1943,-0.01257,-13.0623
1944,-0.01256,-13.0623
1945,-0.01255,-13.0623
1946,-0.01254,-13.0623
1947,-0.01253,-13.0623
1948,-0.01252,-13.0623
1949,-0.01251,-13.0623
1950,-0.0125,-13.0623
1951,-0.01249,-13.0623
1952,-0.01248,-13.0623
1953,-0.01247,-13.0623
1954,-0.01246,-13.0623
1955,-0.01245,-13.0623
1956,-0.01244,-13.0623
1957,-0.01243,-13.0623
1958,-0.01242,-13.0623
1959,-0.01241,-13.0623
1960,-0.0124,-13.0623
1961,-0.01239,-13.0623
1962,-0.01238,-13.0623
1963,-0.01237,-13.0623
1964,-0.01236,-13.0623
1965,-0.01235,-13.0623
1966,-0.01234,-13.0623
1967,-0.01233,-13.0623
1968,-0.01232,-13.0623
1969,-0.01231,-13.0623
1970,-0.0123,-13.0623
1971,-0.01229,-13.0623
1972,-0.01228,-13.0623
1973,-0.01227,-13.0623
1974,-0.01226,-13.0623
1975,-0.01225,-13.0623
1976,-0.01224,-13.0623
1977,-0.01223,-13.0957
1978,-0.01222,-13.0623
1979,-0.01221,-13.0623
1980,-0.0122,-13.0623
1981,-0.01219,-13.0623
1982,-0.01218,-13.0623
1983,-0.01217,-13.0623
1984,-0.01216,-13.0623
1985,-0.01215,-13.0623
1986,-0.01214,-13.0623
1987,-0.01213,-13.0623
1988,-0.01212,-13.0623
1989,-0.01211,-13.0623
1990,-0.0121,-13.0623
1991,-0.01209,-13.0623
1992,-0.01208,-13.079
1993,-0.01207,-13.0623
1994,-0.01206,-13.0623
1995,-0.01205,-13.0623
1996,-0.01204,-13.0623
1997,-0.01203,-13.0623
1998,-0.01202,-13.079
1999,-0.01201,-13.0623
2000,-0.012,-13.0623
2001,-0.01199,-13.079
2002,-0.01198,-13.079
2003,-0.01197,-13.0289
2004,-0.01196,-13.079
2005,-0.01195,-13.079
2006,-0.01194,-13.0623
2007,-0.01193,-13.0623
2008,-0.01192,-13.079
2009,-0.01191,-13.079
2010,-0.0119,-13.079
2011,-0.01189,-13.0623
2012,-0.01188,-13.079
2013,-0.01187,-13.0289
2014,-0.01186,-13.079
2015,-0.01185,-13.079
2016,-0.01184,-13.0957
2017,-0.01183,-13.0623
2018,-0.01182,-13.0623
2019,-0.01181,-13.0623
2020,-0.0118,-13.0623
2021,-0.01179,-13.079
2022,-0.01178,-13.0957
2023,-0.01177,-13.0623
2024,-0.01176,-13.0623
2025,-0.01175,-13.0957
2026,-0.01174,-13.0957
2027,-0.01173,-13.0623
2028,-0.01172,-13.079
2029,-0.01171,-13.079
2030,-0.0117,-13.079
2031,-0.01169,-13.079
2032,-0.01168,-13.079
2033,-0.01167,-13.079
2034,-0.01166,-13.079
2035,-0.01165,-13.079
2036,-0.01164,-13.0623
2037,-0.01163,-13.0957
2038,-0.01162,-13.079
2039,-0.01161,-13.079
2040,-0.0116,-13.079
2041,-0.01159,-13.079
2042,-0.01158,-13.079
2043,-0.01157,-13.079
2044,-0.01156,-13.079
2045,-0.01155,-13.079
2046,-0.01154,-13.079
2047,-0.01153,-13.079
2048,-0.01152,-13.079
2049,-0.01151,-13.079
2050,-0.0115,-13.079
2051,-0.01149,-13.079
2052,-0.01148,-13.079
2053,-0.01147,-13.079
2054,-0.01146,-13.079
2055,-0.01145,-13.079
2056,-0.01144,-13.079
2057,-0.01143,-13.079
2058,-0.01142,-13.079
2059,-0.01141,-13.079
2060,-0.0114,-13.079
2061,-0.01139,-13.079
2062,-0.01138,-13.079
2063,-0.01137,-13.079
2064,-0.01136,-13.079
2065,-0.01135,-13.079
2066,-0.01134,-13.079
2067,-0.01133,-13.079
2068,-0.01132,-13.079
2069,-0.01131,-13.079
2070,-0.0113,-13.079
2071,-0.01129,-13.079
2072,-0.01128,-13.079
2073,-0.01127,-13.079
2074,-0.01126,-13.079
2075,-0.01125,-13.079
2076,-0.01124,-13.079
2077,-0.01123,-13.079
2078,-0.01122,-13.079
2079,-0.01121,-13.079
2080,-0.0112,-13.079
2081,-0.01119,-13.079
2082,-0.01118,-13.079
2083,-0.01117,-13.079
2084,-0.01116,-13.079
2085,-0.01115,-13.079
2086,-0.01114,-13.079
2087,-0.01113,-13.079
2088,-0.01112,-13.079
2089,-0.01111,-13.079
2090,-0.0111,-13.079
2091,-0.01109,-13.079
2092,-0.01108,-13.079
2093,-0.01107,-13.079
2094,-0.01106,-13.079
2095,-0.01105,-13.079
2096,-0.01104,-13.079
2097,-0.01103,-13.079
2098,-0.01102,-13.079
2099,-0.01101,-13.079
2100,-0.011,-13.079
2101,-0.01099,-13.079
2102,-0.01098,-13.079
2103,-0.01097,-13.079
2104,-0.01096,-13.079
2105,-0.01095,-13.079
2106,-0.01094,-13.079
2107,-0.01093,-13.079
2108,-0.01092,-13.079
2109,-0.01091,-13.079
2110,-0.0109,-13.079
2111,-0.01089,-13.079
2112,-0.01088,-13.079
2113,-0.01087,-13.079
2114,-0.01086,-13.079
2115,-0.01085,-13.079
2116,-0.01084,-13.079
2117,-0.01083,-13.079
2118,-0.01082,-13.079
2119,-0.01081,-13.079
2120,-0.0108,-13.079
2121,-0.01079,-13.079
2122,-0.01078,-13.079
2123,-0.01077,-13.079
2124,-0.01076,-13.079
2125,-0.01075,-13.079
2126,-0.01074,-13.079
2127,-0.01073,-13.079
2128,-0.01072,-13.079
2129,-0.01071,-13.079
2130,-0.0107,-13.079
2131,-0.01069,-13.079
2132,-0.01068,-13.079
2133,-0.01067,-13.079
2134,-0.01066,-13.079
2135,-0.01065,-13.079
2136,-0.01064,-13.079
2137,-0.01063,-13.079
2138,-0.01062,-13.079
2139,-0.01061,-13.079
2140,-0.0106,-13.079
2141,-0.01059,-13.079
2142,-0.01058,-13.079
2143,-0.01057,-13.079
2144,-0.01056,-13.079
2145,-0.01055,-13.079
2146,-0.01054,-13.079
2147,-0.01053,-13.079
2148,-0.01052,-13.079
2149,-0.01051,-13.079
2150,-0.0105,-13.079
2151,-0.01049,-13.079
2152,-0.01048,-13.079
2153,-0.01047,-13.079
2154,-0.01046,-13.079
2155,-0.01045,-13.079
2156,-0.01044,-13.079
2157,-0.01043,-13.079
2158,-0.01042,-13.079
2159,-0.01041,-13.079
2160,-0.0104,-13.079
2161,-0.01039,-13.079
2162,-0.01038,-13.079
2163,-0.01037,-13.079
2164,-0.01036,-13.079
2165,-0.01035,-13.079
2166,-0.01034,-13.079
2167,-0.01033,-13.079
2168,-0.01032,-13.079
2169,-0.01031,-13.079
2170,-0.0103,-13.079
2171,-0.01029,-13.079
2172,-0.01028,-13.079
2173,-0.01027,-13.079
2174,-0.01026,-13.079
2175,-0.01025,-13.079
2176,-0.01024,-13.079
2177,-0.01023,-13.079
2178,-0.01022,-13.0957
2179,-0.01021,-13.0957
2180,-0.0102,-13.079
2181,-0.01019,-13.0957
2182,-0.01018,-13.0957
2183,-0.01017,-13.079
2184,-0.01016,-13.0957
2185,-0.01015,-13.0957
2186,-0.01014,-13.0957
2187,-0.01013,-13.0957
2188,-0.01012,-13.079
2189,-0.01011,-13.0957
2190,-0.0101,-13.0957
2191,-0.01009,-13.079
2192,-0.01008,-13.0957
2193,-0.01007,-13.0957
2194,-0.01006,-13.0957
2195,-0.01005,-13.0957
2196,-0.01004,-13.0957
2197,-0.01003,-13.079
2198,-0.01002,-13.079
2199,-0.01001,-13.0957
2200,-0.01,-13.0957
2201,-0.00999,-13.0957
2202,-0.00998,-13.079
2203,-0.00997,-13.0957
2204,-0.00996,-13.0957
2205,-0.00995,-13.0957
2206,-0.00994,-13.0957
2207,-0.00993,-13.0957
2208,-0.00992,-13.0957
2209,-0.00991,-13.0957
2210,-0.0099,-13.0957
2211,-0.00989,-13.0957
2212,-0.00988,-13.0957
2213,-0.00987,-13.0957
2214,-0.00986,-13.0957
2215,-0.00985,-13.0957
2216,-0.00984,-13.0957
2217,-0.00983,-13.0957
2218,-0.00982,-13.0957
2219,-0.00981,-13.0957
2220,-0.0098,-13.0957
2221,-0.00979,-13.0957
2222,-0.00978,-13.0957
2223,-0.00977,-13.0957
2224,-0.00976,-13.0957
2225,-0.00975,-13.0957
2226,-0.00974,-13.0957
2227,-0.00973,-13.0957
2228,-0.00972,-13.0957
2229,-0.00971,-13.0957
2230,-0.0097,-13.0957
2231,-0.00969,-13.0957
2232,-0.00968,-13.0957
2233,-0.00967,-13.0957
2234,-0.00966,-13.0957
2235,-0.00965,-13.0957
2236,-0.00964,-13.0957
2237,-0.00963,-13.0957
2238,-0.00962,-13.0957
2239,-0.00961,-13.0957
2240,-0.0096,-13.0957
2241,-0.00959,-13.0957
2242,-0.00958,-13.0957
2243,-0.00957,-13.0957
2244,-0.00956,-13.0957
2245,-0.00955,-13.0957
2246,-0.00954,-13.0957
2247,-0.00953,-13.0957
2248,-0.00952,-13.0957
2249,-0.00951,-13.0957
2250,-0.0095,-13.0957
2251,-0.00949,-13.0957
2252,-0.00948,-13.0957
2253,-0.00947,-13.0957
2254,-0.00946,-13.0957
2255,-0.00945,-13.0957
2256,-0.00944,-13.0957
2257,-0.00943,-13.0957
2258,-0.00942,-13.0957
2259,-0.00941,-13.0957
2260,-0.0094,-13.0957
2261,-0.00939,-13.0957
2262,-0.00938,-13.0957
2263,-0.00937,-13.0957
2264,-0.00936,-13.0957
2265,-0.00935,-13.0957
2266,-0.00934,-13.0957
2267,-0.00933,-13.0957
2268,-0.00932,-13.0957
2269,-0.00931,-13.0957
2270,-0.0093,-13.0957
2271,-0.00929,-13.0957
2272,-0.00928,-13.0957
2273,-0.00927,-13.0957
2274,-0.00926,-13.0957
2275,-0.00925,-13.0957
2276,-0.00924,-13.0957
2277,-0.00923,-13.0957
2278,-0.00922,-13.0957
2279,-0.00921,-13.0957
2280,-0.0092,-13.0957
2281,-0.00919,-13.0957
2282,-0.00918,-13.0957
2283,-0.00917,-13.0957
2284,-0.00916,-13.0957
2285,-0.00915,-13.0957
2286,-0.00914,-13.0957
2287,-0.00913,-13.0957
2288,-0.00912,-13.0957
2289,-0.00911,-13.0957
2290,-0.0091,-13.0957
2291,-0.00909,-13.0957
2292,-0.00908,-13.0957
2293,-0.00907,-13.0957
2294,-0.00906,-13.0957
2295,-0.00905,-13.0957
2296,-0.00904,-13.0957
2297,-0.00903,-13.0957
2298,-0.00902,-13.0957
2299,-0.00901,-13.0957
2300,-0.009,-13.0957
2301,-0.00899,-13.0957
2302,-0.00898,-13.0957
2303,-0.00897,-13.0957
2304,-0.00896,-13.0957
2305,-0.00895,-13.0957
2306,-0.00894,-13.0957
2307,-0.00893,-13.0957
2308,-0.00892,-13.0957
2309,-0.00891,-13.0957
2310,-0.0089,-13.0957
2311,-0.00889,-13.0957
2312,-0.00888,-13.0957
2313,-0.00887,-13.0957
2314,-0.00886,-13.0957
2315,-0.00885,-13.0957
2316,-0.00884,-13.0957
2317,-0.00883,-13.0957
2318,-0.00882,-13.0957
2319,-0.00881,-13.0957
2320,-0.0088,-13.0957
2321,-0.00879,-13.0957
2322,-0.00878,-13.0957
2323,-0.00877,-13.0957
2324,-0.00876,-13.0957
2325,-0.00875,-13.0957
2326,-0.00874,-13.0957
2327,-0.00873,-13.0957
2328,-0.00872,-13.0957
2329,-0.00871,-13.0957
2330,-0.0087,-13.0957
2331,-0.00869,-13.0957
2332,-0.00868,-13.0957
2333,-0.00867,-13.0957
2334,-0.00866,-13.0957
2335,-0.00865,-13.0957
2336,-0.00864,-13.0957
2337,-0.00863,-13.0957
2338,-0.00862,-13.0957
2339,-0.00861,-13.0957
2340,-0.0086,-13.0957
2341,-0.00859,-13.0957
2342,-0.00858,-13.0957
2343,-0.00857,-13.0957
2344,-0.00856,-13.0957
2345,-0.00855,-13.0957
2346,-0.00854,-13.0957
2347,-0.00853,-13.0957
2348,-0.00852,-13.0957
2349,-0.00851,-13.0957
2350,-0.0085,-13.0957
2351,-0.00849,-13.0957
2352,-0.00848,-13.0957
2353,-0.00847,-13.0957
2354,-0.00846,-13.0957
2355,-0.00845,-13.0957
2356,-0.00844,-13.0957
2357,-0.00843,-13.0957
2358,-0.00842,-13.0957
2359,-0.00841,-13.0957
2360,-0.0084,-13.0957
2361,-0.00839,-13.0957
2362,-0.00838,-13.0957
2363,-0.00837,-13.0957
2364,-0.00836,-13.0957
2365,-0.00835,-13.0957
2366,-0.00834,-13.0957
2367,-0.00833,-13.0957
2368,-0.00832,-13.0957
2369,-0.00831,-13.0957
2370,-0.0083,-13.0957
2371,-0.00829,-13.0957
2372,-0.00828,-13.0957
2373,-0.00827,-13.0957
2374,-0.00826,-13.0957
2375,-0.00825,-13.0957
2376,-0.00824,-13.0957
2377,-0.00823,-13.0957
2378,-0.00822,-13.0957
2379,-0.00821,-13.0957
2380,-0.0082,-13.0957
2381,-0.00819,-13.0957
2382,-0.00818,-13.0957
2383,-0.00817,-13.0957
2384,-0.00816,-13.0957
2385,-0.00815,-13.0957
2386,-0.00814,-13.0957
2387,-0.00813,-13.0957
2388,-0.00812,-13.0957
2389,-0.00811,-13.0957
2390,-0.0081,-13.0957
2391,-0.00809,-13.0957
2392,-0.00808,-13.0957
2393,-0.00807,-13.0957
2394,-0.00806,-13.0957
2395,-0.00805,-13.0957
2396,-0.00804,-13.0957
2397,-0.00803,-13.0957
2398,-0.00802,-13.0957
2399,-0.00801,-13.0957
2400,-0.008,-13.0957
2401,-0.00799,-13.0957
2402,-0.00798,-13.0957
2403,-0.00797,-13.0957
2404,-0.00796,-13.0957
2405,-0.00795,-13.0957
2406,-0.00794,-13.0957
2407,-0.00793,-13.0957
2408,-0.00792,-13.0957
2409,-0.00791,-13.0957
2410,-0.0079,-13.0957
2411,-0.00789,-13.0957
2412,-0.00788,-13.0957
2413,-0.00787,-13.0957
2414,-0.00786,-13.0957
2415,-0.00785,-13.0957
2416,-0.00784,-13.0957
2417,-0.00783,-13.0957
2418,-0.00782,-13.0957
2419,-0.00781,-13.0957
2420,-0.0078,-13.0957
2421,-0.00779,-13.0957
2422,-0.00778,-13.0957
2423,-0.00777,-13.0957
2424,-0.00776,-13.0957
2425,-0.00775,-13.0957
2426,-0.00774,-13.0957
2427,-0.00773,-13.0957
2428,-0.00772,-13.0957
2429,-0.00771,-13.0957
2430,-0.0077,-13.0957
2431,-0.00769,-13.0957
2432,-0.00768,-13.0957
2433,-0.00767,-13.0957
2434,-0.00766,-13.0957
2435,-0.00765,-13.0957
2436,-0.00764,-13.0957
2437,-0.00763,-13.0957
2438,-0.00762,-13.0957
2439,-0.00761,-13.0957
2440,-0.0076,-13.0957
2441,-0.00759,-13.0957
2442,-0.00758,-13.0957
2443,-0.00757,-13.0957
2444,-0.00756,-13.0957
2445,-0.00755,-13.0957
2446,-0.00754,-13.0957
2447,-0.00753,-13.0957
2448,-0.00752,-13.0957
2449,-0.00751,-13.0957
2450,-0.0075,-13.0957
2451,-0.00749,-13.0957
2452,-0.00748,-13.0957
2453,-0.00747,-13.0957
2454,-0.00746,-13.0957
2455,-0.00745,-13.0957
2456,-0.00744,-13.0957
2457,-0.00743,-13.0957
2458,-0.00742,-13.0957
2459,-0.00741,-13.0957
2460,-0.0074,-13.0957
2461,-0.00739,-13.0957
2462,-0.00738,-13.1124
2463,-0.00737,-13.1124
2464,-0.00736,-13.0957
2465,-0.00735,-13.0957
2466,-0.00734,-13.0957
2467,-0.00733,-13.0957
2468,-0.00732,-13.0957
2469,-0.00731,-13.0957
2470,-0.0073,-13.0957
2471,-0.00729,-13.0957
2472,-0.00728,-13.0957
2473,-0.00727,-13.0957
2474,-0.00726,-13.0957
2475,-0.00725,-13.1124
2476,-0.00724,-13.1124
2477,-0.00723,-13.1124
2478,-0.00722,-13.0957
2479,-0.00721,-13.0957
2480,-0.0072,-13.0957
2481,-0.00719,-13.0957
2482,-0.00718,-13.0957
2483,-0.00717,-13.0957
2484,-0.00716,-13.1124
2485,-0.00715,-13.1124
2486,-0.00714,-13.1124
2487,-0.00713,-13.1124
2488,-0.00712,-13.1124
2489,-0.00711,-13.0957
2490,-0.0071,-13.1124
2491,-0.00709,-13.0957
2492,-0.00708,-13.0957
2493,-0.00707,-13.0957
2494,-0.00706,-13.0957
2495,-0.00705,-13.1124
2496,-0.00704,-13.1124
2497,-0.00703,-13.0957
2498,-0.00702,-13.0957
2499,-0.00701,-13.1124
2500,-0.007,-13.1124
2501,-0.00699,-13.0957
2502,-0.00698,-13.1124
2503,-0.00697,-13.0957
2504,-0.00696,-13.0957
2505,-0.00695,-13.0957
2506,-0.00694,-13.1124
2507,-0.00693,-13.0957
2508,-0.00692,-13.1124
2509,-0.00691,-13.0957
2510,-0.0069,-13.0957
2511,-0.00689,-13.0957
2512,-0.00688,-13.0957
2513,-0.00687,-13.0957
2514,-0.00686,-13.1124
2515,-0.00685,-13.1124
2516,-0.00684,-13.0957
2517,-0.00683,-13.0957
2518,-0.00682,-13.0957
2519,-0.00681,-13.0957
2520,-0.0068,-13.0957
2521,-0.00679,-13.0957
2522,-0.00678,-13.0957
2523,-0.00677,-13.0957
2524,-0.00676,-13.1291
2525,-0.00675,-13.1124
2526,-0.00674,-13.1124
2527,-0.00673,-13.0957
2528,-0.00672,-13.0957
2529,-0.00671,-13.0957
2530,-0.0067,-13.0957
2531,-0.00669,-13.1124
2532,-0.00668,-13.1124
2533,-0.00667,-13.0957
2534,-0.00666,-13.1124
2535,-0.00665,-13.1124
2536,-0.00664,-13.079
2537,-0.00663,-13.1124
2538,-0.00662,-13.1291
2539,-0.00661,-13.1124
2540,-0.0066,-13.1124
2541,-0.00659,-13.0957
2542,-0.00658,-13.1124
2543,-0.00657,-13.1124
2544,-0.00656,-13.1124
2545,-0.00655,-13.1124
2546,-0.00654,-13.1124
2547,-0.00653,-13.1124
2548,-0.00652,-13.1124
2549,-0.00651,-13.1124
2550,-0.0065,-13.1124
2551,-0.00649,-13.1124
2552,-0.00648,-13.1124
2553,-0.00647,-13.1124
2554,-0.00646,-13.1124
2555,-0.00645,-13.1124
2556,-0.00644,-13.1124
2557,-0.00643,-13.1124
2558,-0.00642,-13.1124
2559,-0.00641,-13.1124
2560,-0.0064,-13.1124
2561,-0.00639,-13.1124
2562,-0.00638,-13.1124
2563,-0.00637,-13.1124
2564,-0.00636,-13.1124
2565,-0.00635,-13.1124
2566,-0.00634,-13.1124
2567,-0.00633,-13.1124
2568,-0.00632,-13.1124
2569,-0.00631,-13.1124
2570,-0.0063,-13.1124
2571,-0.00629,-13.1124
2572,-0.00628,-13.1124
2573,-0.00627,-13.1124
2574,-0.00626,-13.1124
2575,-0.00625,-13.1124
2576,-0.00624,-13.1124
2577,-0.00623,-13.1124
2578,-0.00622,-13.1124
2579,-0.00621,-13.1124
2580,-0.0062,-13.1124
2581,-0.00619,-13.1124
2582,-0.00618,-13.1124
2583,-0.00617,-13.1124
2584,-0.00616,-13.1124
2585,-0.00615,-13.1124
2586,-0.00614,-13.1124
2587,-0.00613,-13.1124
2588,-0.00612,-13.1124
2589,-0.00611,-13.1124
2590,-0.0061,-13.1124
2591,-0.00609,-13.1124
2592,-0.00608,-13.1124
2593,-0.00607,-13.1124
2594,-0.00606,-13.1124
2595,-0.00605,-13.1124
2596,-0.00604,-13.1124
2597,-0.00603,-13.1124
2598,-0.00602,-13.1124
2599,-0.00601,-13.1124
2600,-0.006,-13.1124
2601,-0.00599,-13.1124
2602,-0.00598,-13.1124
2603,-0.00597,-13.1124
2604,-0.00596,-13.1124
2605,-0.00595,-13.1124
2606,-0.00594,-13.1124
2607,-0.00593,-13.1124
2608,-0.00592,-13.1124
2609,-0.00591,-13.1124
2610,-0.0059,-13.1124
2611,-0.00589,-13.1124
2612,-0.00588,-13.1124
2613,-0.00587,-13.1124
2614,-0.00586,-13.1124
2615,-0.00585,-13.1124
2616,-0.00584,-13.1124
2617,-0.00583,-13.1124
2618,-0.00582,-13.1124
2619,-0.00581,-13.1124
2620,-0.0058,-13.1124
2621,-0.00579,-13.1124
2622,-0.00578,-13.1124
2623,-0.00577,-13.1124
2624,-0.00576,-13.1124
2625,-0.00575,-13.1124
2626,-0.00574,-13.1124
2627,-0.00573,-13.1124
2628,-0.00572,-13.1124
2629,-0.00571,-13.1124
2630,-0.0057,-13.1124
2631,-0.00569,-13.1124
2632,-0.00568,-13.1124
2633,-0.00567,-13.1124
2634,-0.00566,-13.1124
2635,-0.00565,-13.1124
2636,-0.00564,-13.1124
2637,-0.00563,-13.1124
2638,-0.00562,-13.1124
2639,-0.00561,-13.1124
2640,-0.0056,-13.1124
2641,-0.00559,-13.1124
2642,-0.00558,-13.1124
2643,-0.00557,-13.1124
2644,-0.00556,-13.1124
2645,-0.00555,-13.1124
2646,-0.00554,-13.0957
2647,-0.00553,-13.1124
2648,-0.00552,-13.0957
2649,-0.00551,-13.0957
2650,-0.0055,-13.0957
2651,-0.00549,-13.0957
2652,-0.00548,-13.0957
2653,-0.00547,-13.0957
2654,-0.00546,-13.0957
2655,-0.00545,-13.0957
2656,-0.00544,-13.0957
2657,-0.00543,-13.0957
2658,-0.00542,-13.0957
2659,-0.00541,-13.0957
2660,-0.0054,-13.0957
2661,-0.00539,-13.0957
2662,-0.00538,-13.0957
2663,-0.00537,-13.0957
2664,-0.00536,-13.0957
2665,-0.00535,-13.0957
2666,-0.00534,-13.0957
2667,-0.00533,-13.0957
2668,-0.00532,-13.0957
2669,-0.00531,-13.0957
2670,-0.0053,-13.0957
2671,-0.00529,-13.0957
2672,-0.00528,-13.1124
2673,-0.00527,-13.1124
2674,-0.00526,-13.1124
2675,-0.00525,-13.1124
2676,-0.00524,-13.1124
2677,-0.00523,-13.1124
2678,-0.00522,-13.1124
2679,-0.00521,-13.1124
2680,-0.0052,-13.1124
2681,-0.00519,-13.1124
2682,-0.00518,-13.1124
2683,-0.00517,-13.1124
2684,-0.00516,-13.1124
2685,-0.00515,-13.1124
2686,-0.00514,-13.1124
2687,-0.00513,-13.1124
2688,-0.00512,-13.1124
2689,-0.00511,-13.1124
2690,-0.0051,-13.1124
2691,-0.00509,-13.1124
2692,-0.00508,-13.1124
2693,-0.00507,-13.1124
2694,-0.00506,-13.1124
2695,-0.00505,-13.1124
2696,-0.00504,-13.1124
2697,-0.00503,-13.1124
2698,-0.00502,-13.1124
2699,-0.00501,-13.1124
2700,-0.005,-13.1124
2701,-0.00499,-13.1124
2702,-0.00498,-13.1124
2703,-0.00497,-13.1124
2704,-0.00496,-13.1124
2705,-0.00495,-13.1124
2706,-0.00494,-13.1124
2707,-0.00493,-13.1124
2708,-0.00492,-13.1124
2709,-0.00491,-13.1124
2710,-0.0049,-13.1124
2711,-0.00489,-13.1124
2712,-0.00488,-13.1124
2713,-0.00487,-13.1124
2714,-0.00486,-13.1124
2715,-0.00485,-13.1124
2716,-0.00484,-13.1124
2717,-0.00483,-13.1124
2718,-0.00482,-13.1124
2719,-0.00481,-13.1124
2720,-0.0048,-13.1124
2721,-0.00479,-13.1124
2722,-0.00478,-13.1124
2723,-0.00477,-13.1124
2724,-0.00476,-13.1124
2725,-0.00475,-13.1124
2726,-0.00474,-13.1124
2727,-0.00473,-13.1124
2728,-0.00472,-13.1124
2729,-0.00471,-13.1124
2730,-0.0047,-13.1124
2731,-0.00469,-13.1124
2732,-0.00468,-13.1124
2733,-0.00467,-13.1124
2734,-0.00466,-13.1124
2735,-0.00465,-13.1124
2736,-0.00464,-13.1124
2737,-0.00463,-13.1124
2738,-0.00462,-13.1124
2739,-0.00461,-13.1124
2740,-0.0046,-13.1124
2741,-0.00459,-13.1124
2742,-0.00458,-13.1124
2743,-0.00457,-13.1124
2744,-0.00456,-13.1124
2745,-0.00455,-13.1124
2746,-0.00454,-13.1124
2747,-0.00453,-13.1124
2748,-0.00452,-13.1124
2749,-0.00451,-13.1124
2750,-0.0045,-13.1124
2751,-0.00449,-13.1124
2752,-0.00448,-13.1124
2753,-0.00447,-13.1124
2754,-0.00446,-13.1124
2755,-0.00445,-13.1124
2756,-0.00444,-13.1124
2757,-0.00443,-13.1124
2758,-0.00442,-13.1124
2759,-0.00441,-13.1124
2760,-0.0044,-13.1124
2761,-0.00439,-13.1124
2762,-0.00438,-13.1124
2763,-0.00437,-13.1124
2764,-0.00436,-13.1124
2765,-0.00435,-13.1124
2766,-0.00434,-13.1124
2767,-0.00433,-13.1124
2768,-0.00432,-13.1124
2769,-0.00431,-13.1124
2770,-0.0043,-13.1124
2771,-0.00429,-13.1124
2772,-0.00428,-13.1124
2773,-0.00427,-13.1124
2774,-0.00426,-13.1124
2775,-0.00425,-13.1124
2776,-0.00424,-13.1124
2777,-0.00423,-13.1124
2778,-0.00422,-13.1124
2779,-0.00421,-13.1124
2780,-0.0042,-13.1124
2781,-0.00419,-13.1124
2782,-0.00418,-13.1124
2783,-0.00417,-13.1124
2784,-0.00416,-13.1124
2785,-0.00415,-13.1124
2786,-0.00414,-13.1124
2787,-0.00413,-13.1124
2788,-0.00412,-13.1124
2789,-0.00411,-13.1124
2790,-0.0041,-13.1124
2791,-0.00409,-13.1124
2792,-0.00408,-13.1124
2793,-0.00407,-13.1124
2794,-0.00406,-13.1124
2795,-0.00405,-13.1124
2796,-0.00404,-13.1124
2797,-0.00403,-13.1124
2798,-0.00402,-13.1124
2799,-0.00401,-13.1124
2800,-0.004,-13.1124
2801,-0.00399,-13.1124
2802,-0.00398,-13.1124
2803,-0.00397,-13.1124
2804,-0.00396,-13.1124
2805,-0.00395,-13.1124
2806,-0.00394,-13.1124
2807,-0.00393,-13.1124
2808,-0.00392,-13.1124
2809,-0.00391,-13.1124
2810,-0.0039,-13.1124
2811,-0.00389,-13.1124
2812,-0.00388,-13.1124
2813,-0.00387,-13.1124
2814,-0.00386,-13.1124
2815,-0.00385,-13.1124
2816,-0.00384,-13.1124
2817,-0.00383,-13.1124
2818,-0.00382,-13.1124
2819,-0.00381,-13.1124
2820,-0.0038,-13.1124
2821,-0.00379,-13.1124
2822,-0.00378,-13.1124
2823,-0.00377,-13.1124
2824,-0.00376,-13.1124
2825,-0.00375,-13.1124
2826,-0.00374,-13.1124
2827,-0.00373,-13.1124
2828,-0.00372,-13.1124
2829,-0.00371,-13.1124
2830,-0.0037,-13.1124
2831,-0.00369,-13.1124
2832,-0.00368,-13.1124
2833,-0.00367,-13.1291
2834,-0.00366,-13.1291
2835,-0.00365,-13.1291
2836,-0.00364,-13.1291
2837,-0.00363,-13.1291
2838,-0.00362,-13.1291
2839,-0.00361,-13.1291
2840,-0.0036,-13.1291
2841,-0.00359,-13.1291
2842,-0.00358,-13.1291
2843,-0.00357,-13.1291
2844,-0.00356,-13.1291
2845,-0.00355,-13.1291
2846,-0.00354,-13.1291
2847,-0.00353,-13.1291
2848,-0.00352,-13.1291
2849,-0.00351,-13.1291
2850,-0.0035,-13.1291
2851,-0.00349,-13.1291
2852,-0.00348,-13.1291
2853,-0.00347,-13.1291
2854,-0.00346,-13.1291
2855,-0.00345,-13.1291
2856,-0.00344,-13.1291
2857,-0.00343,-13.1291
2858,-0.00342,-13.1291
2859,-0.00341,-13.1291
2860,-0.0034,-13.1291
2861,-0.00339,-13.1291
2862,-0.00338,-13.1291
2863,-0.00337,-13.1291
2864,-0.00336,-13.1291
2865,-0.00335,-13.1291
2866,-0.00334,-13.1291
2867,-0.00333,-13.1291
2868,-0.00332,-13.1291
2869,-0.00331,-13.1291
2870,-0.0033,-13.1291
2871,-0.00329,-13.1291
2872,-0.00328,-13.1291
2873,-0.00327,-13.1291
2874,-0.00326,-13.1291
2875,-0.00325,-13.1291
2876,-0.00324,-13.1291
2877,-0.00323,-13.1291
2878,-0.00322,-13.1291
2879,-0.00321,-13.1291
2880,-0.0032,-13.1291
2881,-0.00319,-13.1291
2882,-0.00318,-13.1291
2883,-0.00317,-13.1291
2884,-0.00316,-13.1291
2885,-0.00315,-13.1291
2886,-0.00314,-13.1291
2887,-0.00313,-13.1291
2888,-0.00312,-13.1291
2889,-0.00311,-13.1291
2890,-0.0031,-13.1291
2891,-0.00309,-13.1291
2892,-0.00308,-13.1291
2893,-0.00307,-13.1291
2894,-0.00306,-13.1291
2895,-0.00305,-13.1291
2896,-0.00304,-13.1291
2897,-0.00303,-13.1291
2898,-0.00302,-13.1291
2899,-0.00301,-13.1291
2900,-0.003,-13.1291
2901,-0.00299,-13.1291
2902,-0.00298,-13.1291
2903,-0.00297,-13.1291
2904,-0.00296,-13.1291
2905,-0.00295,-13.1291
2906,-0.00294,-13.1291
2907,-0.00293,-13.1291
2908,-0.00292,-13.1291
2909,-0.00291,-13.1291
2910,-0.0029,-13.1291
2911,-0.00289,-13.1291
2912,-0.00288,-13.1291
2913,-0.00287,-13.1291
2914,-0.00286,-13.1291
2915,-0.00285,-13.1291
2916,-0.00284,-13.1291
2917,-0.00283,-13.1291
2918,-0.00282,-13.1291
2919,-0.00281,-13.1291
2920,-0.0028,-13.1291
2921,-0.00279,-13.1291
2922,-0.00278,-13.1291
2923,-0.00277,-13.1291
2924,-0.00276,-13.1291
2925,-0.00275,-13.1291
2926,-0.00274,-13.1291
2927,-0.00273,-13.1291
2928,-0.00272,-13.1291
2929,-0.00271,-13.1291
2930,-0.0027,-13.1291
2931,-0.00269,-13.1291
2932,-0.00268,-13.1291
2933,-0.00267,-13.1291
2934,-0.00266,-13.1291
2935,-0.00265,-13.1291
2936,-0.00264,-13.1291
2937,-0.00263,-13.1291
2938,-0.00262,-13.1291
2939,-0.00261,-13.1291
2940,-0.0026,-13.1291
2941,-0.00259,-13.1291
2942,-0.00258,-13.1291
2943,-0.00257,-13.1291
2944,-0.00256,-13.1291
2945,-0.00255,-13.1291
2946,-0.00254,-13.1291
2947,-0.00253,-13.1124
2948,-0.00252,-13.1291
2949,-0.00251,-13.1124
2950,-0.0025,-13.1291
2951,-0.00249,-13.1291
2952,-0.00248,-13.1291
2953,-0.00247,-13.1124
2954,-0.00246,-13.1291
2955,-0.00245,-13.1291
2956,-0.00244,-13.1291
2957,-0.00243,-13.1291
2958,-0.00242,-13.1291
2959,-0.00241,-13.1291
2960,-0.0024,-13.1124
2961,-0.00239,-13.1124
2962,-0.00238,-13.1124
2963,-0.00237,-13.1291
2964,-0.00236,-13.1291
2965,-0.00235,-13.1124
2966,-0.00234,-13.1124
2967,-0.00233,-13.1124
2968,-0.00232,-13.1124
2969,-0.00231,-13.1124
2970,-0.0023,-13.1124
2971,-0.00229,-13.1124
2972,-0.00228,-13.1124
2973,-0.00227,-13.1124
2974,-0.00226,-13.1124
2975,-0.00225,-13.1124
2976,-0.00224,-13.1124
2977,-0.00223,-13.1458
2978,-0.00222,-13.1124
2979,-0.00221,-13.1124
2980,-0.0022,-13.1124
2981,-0.00219,-13.1124
2982,-0.00218,-13.1124
2983,-0.00217,-13.1124
2984,-0.00216,-13.1124
2985,-0.00215,-13.1124
2986,-0.00214,-13.1124
2987,-0.00213,-13.1124
2988,-0.00212,-13.1124
2989,-0.00211,-13.1124
2990,-0.0021,-13.1124
2991,-0.00209,-13.1124
2992,-0.00208,-13.1124
2993,-0.00207,-13.1124
2994,-0.00206,-13.1124
2995,-0.00205,-13.1124
2996,-0.00204,-13.1124
2997,-0.00203,-13.1124
2998,-0.00202,-13.1124
2999,-0.00201,-13.1124
3000,-0.002,-13.1124
3001,-0.00199,-13.1124
3002,-0.00198,-13.1124
3003,-0.00197,-13.1124
3004,-0.00196,-13.1124
3005,-0.00195,-13.1124
3006,-0.00194,-13.1124
3007,-0.00193,-13.1124
3008,-0.00192,-13.1124
3009,-0.00191,-13.1124
3010,-0.0019,-13.1124
3011,-0.00189,-13.1124
3012,-0.00188,-13.1124
3013,-0.00187,-13.1124
3014,-0.00186,-13.1124
3015,-0.00185,-13.1124
3016,-0.00184,-13.1124
3017,-0.00183,-13.1124
3018,-0.00182,-13.1124
3019,-0.00181,-13.1124
3020,-0.0018,-13.1124
3021,-0.00179,-13.1124
3022,-0.00178,-13.1124
3023,-0.00177,-13.1124
3024,-0.00176,-13.1124
3025,-0.00175,-13.1124
3026,-0.00174,-13.1124
3027,-0.00173,-13.1124
3028,-0.00172,-13.1124
3029,-0.00171,-13.1124
3030,-0.0017,-13.1124
3031,-0.00169,-13.1124
3032,-0.00168,-13.1124
3033,-0.00167,-13.1124
3034,-0.00166,-13.1124
3035,-0.00165,-13.1124
3036,-0.00164,-13.1124
3037,-0.00163,-13.1124
3038,-0.00162,-13.1124
3039,-0.00161,-13.1124
3040,-0.0016,-13.1124
3041,-0.00159,-13.1124
3042,-0.00158,-13.1124
3043,-0.00157,-13.1124
3044,-0.00156,-13.1124
3045,-0.00155,-13.1124
3046,-0.00154,-13.1124
3047,-0.00153,-13.1124
3048,-0.00152,-13.1124
3049,-0.00151,-13.1124
3050,-0.0015,-13.1124
3051,-0.00149,-13.1124
3052,-0.00148,-13.1124
3053,-0.00147,-13.1124
3054,-0.00146,-13.1124
3055,-0.00145,-13.1124
3056,-0.00144,-13.1124
3057,-0.00143,-13.1124
3058,-0.00142,-13.1124
3059,-0.00141,-13.1124
3060,-0.0014,-13.1124
3061,-0.00139,-13.0957
3062,-0.00138,-13.1124
3063,-0.00137,-13.1124
3064,-0.00136,-13.1124
3065,-0.00135,-13.0957
3066,-0.00134,-13.0957
3067,-0.00133,-13.0957
3068,-0.00132,-13.0957
3069,-0.00131,-13.0957
3070,-0.0013,-13.0957
3071,-0.00129,-13.0957
3072,-0.00128,-13.0957
3073,-0.00127,-13.0957
3074,-0.00126,-13.0957
3075,-0.00125,-13.1124
3076,-0.00124,-13.0957
3077,-0.00123,-13.1291
3078,-0.00122,-13.0957
3079,-0.00121,-13.0957
3080,-0.0012,-13.0957
3081,-0.00119,-13.0957
3082,-0.00118,-13.0957
3083,-0.00117,-13.0957
3084,-0.00116,-13.0957
3085,-0.00115,-13.0957
3086,-0.00114,-13.0957
3087,-0.00113,-13.0957
3088,-0.00112,-13.0957
3089,-0.00111,-13.0957
3090,-0.0011,-13.0957
3091,-0.00109,-13.0957
3092,-0.00108,-13.0957
3093,-0.00107,-13.0957
3094,-0.00106,-13.0957
3095,-0.00105,-13.0957
3096,-0.00104,-13.0957
3097,-0.00103,-13.0957
3098,-0.00102,-13.0957
3099,-0.00101,-13.0957
3100,-0.001,-13.0957
3101,-0.00099,-13.0957
3102,-0.00098,-13.0957
3103,-0.00097,-13.0957
3104,-0.00096,-13.0957
3105,-0.00095,-13.0957
3106,-0.00094,-13.0957
3107,-0.00093,-13.0957
3108,-0.00092,-13.1124
3109,-0.00091,-13.079
3110,-0.0009,-13.0957
3111,-0.00089,-13.0957
3112,-0.00088,-13.0957
3113,-0.00087,-13.0957
3114,-0.00086,-13.079
3115,-0.00085,-13.079
3116,-0.00084,-13.0957
3117,-0.00083,-13.079
3118,-0.00082,-13.079
3119,-0.00081,-13.079
3120,-0.0008,-13.079
3121,-0.00079,-13.079
3122,-0.00078,-13.079
3123,-0.00077,-13.079
3124,-0.00076,-13.079
3125,-0.00075,-13.079
3126,-0.00074,-13.079
3127,-0.00073,-13.079
3128,-0.00072,-13.079
3129,-0.00071,-13.079
3130,-0.0007,-13.079
3131,-0.00069,-13.079
3132,-0.00068,-13.079
3133,-0.00067,-13.079
3134,-0.00066,-13.079
3135,-0.00065,-13.079
3136,-0.00064,-13.079
3137,-0.00063,-13.079
3138,-0.00062,-13.079
3139,-0.00061,-13.079
3140,-0.0006,-13.079
3141,-0.00059,-13.079
3142,-0.00058,-13.079
3143,-0.00057,-13.079
3144,-0.00056,-13.079
3145,-0.00055,-13.079
3146,-0.00054,-13.0623
3147,-0.00053,-13.079
3148,-0.00052,-13.079
3149,-0.00051,-13.0623
3150,-0.0005,-13.0623
3151,-0.00049,-13.0623
3152,-0.00048,-13.0623
3153,-0.00047,-13.0623
3154,-0.00046,-13.0623
3155,-0.00045,-13.0623
3156,-0.00044,-13.0623
3157,-0.00043,-13.0623
3158,-0.00042,-13.0623
3159,-0.00041,-13.0623
3160,-0.0004,-13.0623
3161,-0.00039,-13.0623
3162,-0.00038,-13.0623
3163,-0.00037,-13.0623
3164,-0.00036,-13.0623
3165,-0.00035,-13.0623
3166,-0.00034,-13.0623
3167,-0.00033,-13.0623
3168,-0.00032,-13.0623
3169,-0.00031,-13.0623
3170,-0.0003,-13.0623
3171,-0.00029,-13.0623
3172,-0.00028,-13.0623
3173,-0.00027,-13.0289
3174,-0.00026,-13.0289
3175,-0.00025,-13.0289
3176,-0.00024,-13.0289
3177,-0.00023,-13.0289
3178,-0.00022,-13.0289
3179,-0.00021,-13.0289
3180,-0.0002,-13.0289
3181,-0.00019,-13.0289
3182,-0.00018,-13.0289
3183,-0.00017,-13.0289
3184,-0.00016,-13.0289
3185,-0.00015,-13.0122
3186,-0.00014,-13.0122
3187,-0.00013,-13.0122
3188,-0.00012,-13.0122
3189,-0.00011,-13.0122
3190,-0.0001,-13.0122
3191,-9e-05,-13.0122
3192,-8e-05,-13.0122
3193,-7e-05,-13.0122
3194,-6e-05,-13.0122
3195,-5e-05,-13.0122
3196,-4e-05,-12.9955
3197,-3e-05,-12.9955
3198,-2e-05,-12.9955
3199,-1e-05,-12.5278
3200,0,-10.9409
3201,1e-05,12.2104
3202,2e-05,10.5066
3203,3e-05,10.7739
3204,4e-05,10.7405
3205,5e-05,10.7071
3206,6e-05,10.6904
3207,7e-05,10.9576
3208,8e-05,10.9409
3209,9e-05,10.7405
3210,0.0001,11.0412
3211,0.00011,11.1247
3212,0.00012,10.9075
3213,0.00013,11.1581
3214,0.00014,11.275
3215,0.00015,11.0579
3216,0.00016,11.2917
3217,0.00017,11.442
3218,0.00018,11.2249
3219,0.00019,11.3919
3220,0.0002,11.5924
3221,0.00021,11.4253
3222,0.00022,11.4922
3223,0.00023,11.6926
3224,0.00024,11.5924
3225,0.00025,11.5757
3226,0.00026,11.7928
3227,0.00027,11.726
3228,0.00028,11.6258
3229,0.00029,11.893
3230,0.0003,11.8763
3231,0.00031,11.6926
3232,0.00032,11.9599
3233,0.00033,11.9599
3234,0.00034,11.726
3235,0.00035,12.01
3236,0.00036,12.0601
3237,0.00037,11.8262
3238,0.00038,12.0601
3239,0.00039,12.1269
3240,0.0004,11.893
3241,0.00041,12.0601
3242,0.00042,12.1937
3243,0.00043,11.9766
3244,0.00044,12.0935
3245,0.00045,12.2271
3246,0.00046,12.0768
3247,0.00047,12.0768
3248,0.00048,12.2772
3249,0.00049,12.1603
3250,0.0005,12.0768
3251,0.00051,12.3106
3252,0.00052,12.2438
3253,0.00053,12.0935
3254,0.00054,12.3106
3255,0.00055,12.3441
3256,0.00056,12.0935
3257,0.00057,12.3441
3258,0.00058,12.3775
3259,0.00059,12.1269
3260,0.0006,12.3608
3261,0.00061,12.4109
3262,0.00062,12.1603
3263,0.00063,12.3441
3264,0.00064,12.4443
3265,0.00065,12.2104
3266,0.00066,12.3273
3267,0.00067,12.4443
3268,0.00068,12.2772
3269,0.00069,12.3106
3270,0.0007,12.3942
3271,0.00071,13.4465
3272,0.00072,-4.30956
3273,0.00073,-13.7639
3274,0.00074,-13.5968
3275,0.00075,-13.4966
3276,0.00076,-13.4131
3277,0.00077,-13.3129
3278,0.00078,-13.2293
3279,0.00079,-13.1792
3280,0.0008,-13.1458
3281,0.00081,-13.0957
3282,0.00082,-13.0957
3283,0.00083,-13.079
3284,0.00084,-13.0623
3285,0.00085,-13.0623
3286,0.00086,-13.0289
3287,0.00087,-13.0289
3288,0.00088,-13.0289
3289,0.00089,-13.0289
3290,0.0009,-13.0289
3291,0.00091,-13.0122
3292,0.00092,-13.0122
3293,0.00093,-13.0122
3294,0.00094,-13.0122
3295,0.00095,-13.0122
3296,0.00096,-13.0122
3297,0.00097,-13.0122
3298,0.00098,-13.0122
3299,0.00099,-13.0122
3300,0.001,-13.0122
3301,0.00101,-13.0122
3302,0.00102,-13.0122
3303,0.00103,-13.0122
3304,0.00104,-13.0122
3305,0.00105,-13.0289
3306,0.00106,-13.0289
3307,0.00107,-13.0289
3308,0.00108,-13.0289
3309,0.00109,-13.0289
3310,0.0011,-13.0289
3311,0.00111,-13.0289
3312,0.00112,-13.0289
3313,0.00113,-13.0289
3314,0.00114,-13.0289
3315,0.00115,-13.0289
3316,0.00116,-13.0122
3317,0.00117,-13.0289
3318,0.00118,-13.0289
3319,0.00119,-13.0289
3320,0.0012,-13.0289
3321,0.00121,-13.0289
3322,0.00122,-13.0289
3323,0.00123,-13.0289
3324,0.00124,-13.0289
3325,0.00125,-13.0289
3326,0.00126,-13.0289
3327,0.00127,-13.0289
3328,0.00128,-13.0289
3329,0.00129,-13.0289
3330,0.0013,-13.0289
3331,0.00131,-13.0289
3332,0.00132,-13.0289
3333,0.00133,-13.0289
3334,0.00134,-13.0289
3335,0.00135,-13.0289
3336,0.00136,-13.0289
3337,0.00137,-13.0289
3338,0.00138,-13.0289
3339,0.00139,-13.0289
3340,0.0014,-13.0289
3341,0.00141,-13.0289
3342,0.00142,-13.0289
3343,0.00143,-13.0289
3344,0.00144,-13.0289
3345,0.00145,-13.0289
3346,0.00146,-13.0289
3347,0.00147,-13.0289
3348,0.00148,-13.0289
3349,0.00149,-13.0289
3350,0.0015,-13.0289
3351,0.00151,-13.0289
3352,0.00152,-13.0289
3353,0.00153,-13.0289
3354,0.00154,-13.0289
3355,0.00155,-13.0289
3356,0.00156,-13.0289
3357,0.00157,-13.0289
3358,0.00158,-13.0289
3359,0.00159,-13.0289
3360,0.0016,-13.0289
3361,0.00161,-13.0289
3362,0.00162,-13.0289
3363,0.00163,-13.0289
3364,0.00164,-13.0289
3365,0.00165,-13.0289
3366,0.00166,-13.0289
3367,0.00167,-13.0289
3368,0.00168,-13.0289
3369,0.00169,-13.0289
3370,0.0017,-13.0289
3371,0.00171,-13.0623
3372,0.00172,-13.0623
3373,0.00173,-13.0289
3374,0.00174,-13.0289
3375,0.00175,-13.0623
3376,0.00176,-13.0122
3377,0.00177,-13.079
3378,0.00178,-13.0289
3379,0.00179,-13.0623
3380,0.0018,-13.0623
3381,0.00181,-13.0623
3382,0.00182,-13.0623
3383,0.00183,-13.0623
3384,0.00184,-13.0623
3385,0.00185,-13.0623
3386,0.00186,-13.0623
3387,0.00187,-13.0623
3388,0.00188,-13.0623
3389,0.00189,-13.0623
3390,0.0019,-13.0623
3391,0.00191,-13.0623
3392,0.00192,-13.0623
3393,0.00193,-13.0623
3394,0.00194,-13.0623
3395,0.00195,-13.0623
3396,0.00196,-13.0623
3397,0.00197,-13.0623
3398,0.00198,-13.0623
3399,0.00199,-13.0623
3400,0.002,-13.0623
3401,0.00201,-13.0623
3402,0.00202,-13.0623
3403,0.00203,-13.0623
3404,0.00204,-13.0623
3405,0.00205,-13.0623
3406,0.00206,-13.0623
3407,0.00207,-13.0623
3408,0.00208,-13.0623
3409,0.00209,-13.0623
3410,0.0021,-13.0623
3411,0.00211,-13.0623
3412,0.00212,-13.0623
3413,0.00213,-13.0623
3414,0.00214,-13.0623
3415,0.00215,-13.0623
3416,0.00216,-13.0623
3417,0.00217,-13.0623
3418,0.00218,-13.0623
3419,0.00219,-13.0623
3420,0.0022,-13.0623
3421,0.00221,-13.0623
3422,0.00222,-13.0623
3423,0.00223,-13.0623
3424,0.00224,-13.0623
3425,0.00225,-13.0623
3426,0.00226,-13.0623
3427,0.00227,-13.0623
3428,0.00228,-13.0623
3429,0.00229,-13.0623
3430,0.0023,-13.0623
3431,0.00231,-13.0623
3432,0.00232,-13.0623
3433,0.00233,-13.0623
3434,0.00234,-13.0623
3435,0.00235,-13.0623
3436,0.00236,-13.0623
3437,0.00237,-13.0623
3438,0.00238,-13.0623
3439,0.00239,-13.0623
3440,0.0024,-13.0623
3441,0.00241,-13.0623
3442,0.00242,-13.0623
3443,0.00243,-13.0623
3444,0.00244,-13.0623
3445,0.00245,-13.0623
3446,0.00246,-13.0623
3447,0.00247,-13.0623
3448,0.00248,-13.0623
3449,0.00249,-13.0623
3450,0.0025,-13.0623
3451,0.00251,-13.0623
3452,0.00252,-13.0623
3453,0.00253,-13.0623
3454,0.00254,-13.0623
3455,0.00255,-13.0623
3456,0.00256,-13.0623
3457,0.00257,-13.0623
3458,0.00258,-13.0623
3459,0.00259,-13.0623
3460,0.0026,-13.0623
3461,0.00261,-13.0623
3462,0.00262,-13.0623
3463,0.00263,-13.0623
3464,0.00264,-13.0623
3465,0.00265,-13.0623
3466,0.00266,-13.0623
3467,0.00267,-13.0623
3468,0.00268,-13.0623
3469,0.00269,-13.0623
3470,0.0027,-13.0623
3471,0.00271,-13.0623
3472,0.00272,-13.0623
3473,0.00273,-13.0623
3474,0.00274,-13.0623
3475,0.00275,-13.0623
3476,0.00276,-13.0623
3477,0.00277,-13.0623
3478,0.00278,-13.0623
3479,0.00279,-13.0623
3480,0.0028,-13.0623
3481,0.00281,-13.0623
3482,0.00282,-13.0623
3483,0.00283,-13.0623
3484,0.00284,-13.0623
3485,0.00285,-13.0623
3486,0.00286,-13.0623
3487,0.00287,-13.0623
3488,0.00288,-13.0623
3489,0.00289,-13.0623
3490,0.0029,-13.0623
3491,0.00291,-13.0623
3492,0.00292,-13.0623
3493,0.00293,-13.0623
3494,0.00294,-13.0623
3495,0.00295,-13.0623
3496,0.00296,-13.0623
3497,0.00297,-13.0623
3498,0.00298,-13.0623
3499,0.00299,-13.0623
3500,0.003,-13.0623
3501,0.00301,-13.0623
3502,0.00302,-13.0623
3503,0.00303,-13.0623
3504,0.00304,-13.0623
3505,0.00305,-13.0623
3506,0.00306,-13.0623
3507,0.00307,-13.0623
3508,0.00308,-13.0623
3509,0.00309,-13.0623
3510,0.0031,-13.0623
3511,0.00311,-13.0623
3512,0.00312,-13.0623
3513,0.00313,-13.0623
3514,0.00314,-13.0623
3515,0.00315,-13.0623
3516,0.00316,-13.0623
3517,0.00317,-13.0623
3518,0.00318,-13.0623
3519,0.00319,-13.0623
3520,0.0032,-13.0623
3521,0.00321,-13.0623
3522,0.00322,-13.0623
3523,0.00323,-13.0623
3524,0.00324,-13.0623
3525,0.00325,-13.0623
3526,0.00326,-13.0623
3527,0.00327,-13.0623
3528,0.00328,-13.0623
3529,0.00329,-13.0623
3530,0.0033,-13.0623
3531,0.00331,-13.0623
3532,0.00332,-13.0623
3533,0.00333,-13.0623
3534,0.00334,-13.0623
3535,0.00335,-13.0623
3536,0.00336,-13.0623
3537,0.00337,-13.079
3538,0.00338,-13.0289
3539,0.00339,-13.079
3540,0.0034,-13.0623
3541,0.00341,-13.0623
3542,0.00342,-13.079
3543,0.00343,-13.079
3544,0.00344,-13.079
3545,0.00345,-13.079
3546,0.00346,-13.0623
3547,0.00347,-13.079
3548,0.00348,-13.0623
3549,0.00349,-13.079
3550,0.0035,-13.079
3551,0.00351,-13.079
3552,0.00352,-13.0957
3553,0.00353,-13.0623
3554,0.00354,-13.079
3555,0.00355,-13.079
3556,0.00356,-13.079
3557,0.00357,-13.079
3558,0.00358,-13.079
3559,0.00359,-13.079
3560,0.0036,-13.079
3561,0.00361,-13.079
3562,0.00362,-13.079
3563,0.00363,-13.079
3564,0.00364,-13.079
3565,0.00365,-13.079
3566,0.00366,-13.079
3567,0.00367,-13.079
3568,0.00368,-13.079
3569,0.00369,-13.079
3570,0.0037,-13.079
3571,0.00371,-13.079
3572,0.00372,-13.079
3573,0.00373,-13.079
3574,0.00374,-13.079
3575,0.00375,-13.079
3576,0.00376,-13.079
3577,0.00377,-13.079
3578,0.00378,-13.079
3579,0.00379,-13.079
3580,0.0038,-13.079
3581,0.00381,-13.079
3582,0.00382,-13.079
3583,0.00383,-13.079
3584,0.00384,-13.079
3585,0.00385,-13.079
3586,0.00386,-13.079
3587,0.00387,-13.079
3588,0.00388,-13.079
3589,0.00389,-13.079
3590,0.0039,-13.079
3591,0.00391,-13.079
3592,0.00392,-13.079
3593,0.00393,-13.079
3594,0.00394,-13.079
3595,0.00395,-13.079
3596,0.00396,-13.079
3597,0.00397,-13.079
3598,0.00398,-13.079
3599,0.00399,-13.079
3600,0.004,-13.079
3601,0.00401,-13.079
3602,0.00402,-13.079
3603,0.00403,-13.079
3604,0.00404,-13.079
3605,0.00405,-13.079
3606,0.00406,-13.079
3607,0.00407,-13.079
3608,0.00408,-13.079
3609,0.00409,-13.079
3610,0.0041,-13.079
3611,0.00411,-13.079
3612,0.00412,-13.079
3613,0.00413,-13.079
3614,0.00414,-13.079
3615,0.00415,-13.079
3616,0.00416,-13.079
3617,0.00417,-13.079
3618,0.00418,-13.079
3619,0.00419,-13.079
3620,0.0042,-13.079
3621,0.00421,-13.079
3622,0.00422,-13.079
3623,0.00423,-13.079
3624,0.00424,-13.079
3625,0.00425,-13.079
3626,0.00426,-13.079
3627,0.00427,-13.079
3628,0.00428,-13.079
3629,0.00429,-13.079
3630,0.0043,-13.079
3631,0.00431,-13.079
3632,0.00432,-13.079
3633,0.00433,-13.079
3634,0.00434,-13.079
3635,0.00435,-13.079
3636,0.00436,-13.079
3637,0.00437,-13.079
3638,0.00438,-13.079
3639,0.00439,-13.079
3640,0.0044,-13.079
3641,0.00441,-13.079
3642,0.00442,-13.079
3643,0.00443,-13.079
3644,0.00444,-13.079
3645,0.00445,-13.079
3646,0.00446,-13.079
3647,0.00447,-13.079
3648,0.00448,-13.079
3649,0.00449,-13.079
3650,0.0045,-13.079
3651,0.00451,-13.079
3652,0.00452,-13.079
3653,0.00453,-13.079
3654,0.00454,-13.079
3655,0.00455,-13.079
3656,0.00456,-13.079
3657,0.00457,-13.079
3658,0.00458,-13.079
3659,0.00459,-13.079
3660,0.0046,-13.079
3661,0.00461,-13.079
3662,0.00462,-13.079
3663,0.00463,-13.079
3664,0.00464,-13.079
3665,0.00465,-13.079
3666,0.00466,-13.079
3667,0.00467,-13.079
3668,0.00468,-13.079
3669,0.00469,-13.079
3670,0.0047,-13.079
3671,0.00471,-13.079
3672,0.00472,-13.079
3673,0.00473,-13.079
3674,0.00474,-13.079
3675,0.00475,-13.079
3676,0.00476,-13.079
3677,0.00477,-13.079
3678,0.00478,-13.079
3679,0.00479,-13.079
3680,0.0048,-13.079
3681,0.00481,-13.079
3682,0.00482,-13.079
3683,0.00483,-13.079
3684,0.00484,-13.079
3685,0.00485,-13.079
3686,0.00486,-13.079
3687,0.00487,-13.079
3688,0.00488,-13.079
3689,0.00489,-13.079
3690,0.0049,-13.079
3691,0.00491,-13.079
3692,0.00492,-13.079
3693,0.00493,-13.079
3694,0.00494,-13.079
3695,0.00495,-13.079
3696,0.00496,-13.079
3697,0.00497,-13.0957
3698,0.00498,-13.0957
3699,0.00499,-13.079
3700,0.005,-13.079
3701,0.00501,-13.079
3702,0.00502,-13.0957
3703,0.00503,-13.0957
3704,0.00504,-13.079
3705,0.00505,-13.0957
3706,0.00506,-13.0957
3707,0.00507,-13.079
3708,0.00508,-13.079
3709,0.00509,-13.079
3710,0.0051,-13.0957
3711,0.00511,-13.0957
3712,0.00512,-13.0957
3713,0.00513,-13.0957
3714,0.00514,-13.0957
3715,0.00515,-13.0957
3716,0.00516,-13.0957
3717,0.00517,-13.079
3718,0.00518,-13.0957
3719,0.00519,-13.0957
3720,0.0052,-13.0957
3721,0.00521,-13.0957
3722,0.00522,-13.0957
3723,0.00523,-13.0957
3724,0.00524,-13.0957
3725,0.00525,-13.0957
3726,0.00526,-13.079
3727,0.00527,-13.0957
3728,0.00528,-13.079
3729,0.00529,-13.079
3730,0.0053,-13.0957
3731,0.00531,-13.0957
3732,0.00532,-13.0957
3733,0.00533,-13.1124
3734,0.00534,-13.079
3735,0.00535,-13.0957
3736,0.00536,-13.0957
3737,0.00537,-13.0957
3738,0.00538,-13.0957
3739,0.00539,-13.079
3740,0.0054,-13.1124
3741,0.00541,-13.0957
3742,0.00542,-13.0957
3743,0.00543,-13.0957
3744,0.00544,-13.0957
3745,0.00545,-13.0957
3746,0.00546,-13.1124
3747,0.00547,-13.079
3748,0.00548,-13.0957
3749,0.00549,-13.0957
3750,0.0055,-13.0957
3751,0.00551,-13.0957
3752,0.00552,-13.0957
3753,0.00553,-13.0957
3754,0.00554,-13.0957
3755,0.00555,-13.0957
3756,0.00556,-13.0957
3757,0.00557,-13.0957
3758,0.00558,-13.0957
3759,0.00559,-13.0957
3760,0.0056,-13.0957
3761,0.00561,-13.0957
3762,0.00562,-13.0957
3763,0.00563,-13.0957
3764,0.00564,-13.0957
3765,0.00565,-13.0957
3766,0.00566,-13.0957
3767,0.00567,-13.0957
3768,0.00568,-13.0957
3769,0.00569,-13.0957
3770,0.0057,-13.0957
3771,0.00571,-13.0957
3772,0.00572,-13.0957
3773,0.00573,-13.0957
3774,0.00574,-13.0957
3775,0.00575,-13.0957
3776,0.00576,-13.0957
3777,0.00577,-13.0957
3778,0.00578,-13.0957
3779,0.00579,-13.0957
3780,0.0058,-13.0957
3781,0.00581,-13.0957
3782,0.00582,-13.0957
3783,0.00583,-13.0957
3784,0.00584,-13.0957
3785,0.00585,-13.0957
3786,0.00586,-13.0957
3787,0.00587,-13.0957
3788,0.00588,-13.0957
3789,0.00589,-13.0957
3790,0.0059,-13.0957
3791,0.00591,-13.0957
3792,0.00592,-13.0957
3793,0.00593,-13.0957
3794,0.00594,-13.0957
3795,0.00595,-13.0957
3796,0.00596,-13.0957
3797,0.00597,-13.0957
3798,0.00598,-13.0957
3799,0.00599,-13.0957
3800,0.006,-13.0957
3801,0.00601,-13.0957
3802,0.00602,-13.0957
3803,0.00603,-13.0957
3804,0.00604,-13.0957
3805,0.00605,-13.0957
3806,0.00606,-13.0957
3807,0.00607,-13.0957
3808,0.00608,-13.0957
3809,0.00609,-13.0957
3810,0.0061,-13.0957
3811,0.00611,-13.0957
3812,0.00612,-13.0957
3813,0.00613,-13.0957
3814,0.00614,-13.0957
3815,0.00615,-13.0957
3816,0.00616,-13.0957
3817,0.00617,-13.0957
3818,0.00618,-13.0957
3819,0.00619,-13.0957
3820,0.0062,-13.0957
3821,0.00621,-13.0957
3822,0.00622,-13.0957
3823,0.00623,-13.0957
3824,0.00624,-13.0957
3825,0.00625,-13.0957
3826,0.00626,-13.0957
3827,0.00627,-13.0957
3828,0.00628,-13.0957
3829,0.00629,-13.0957
3830,0.0063,-13.0957
3831,0.00631,-13.0957
3832,0.00632,-13.0957
3833,0.00633,-13.0957
3834,0.00634,-13.0957
3835,0.00635,-13.0957
3836,0.00636,-13.0957
3837,0.00637,-13.0957
3838,0.00638,-13.0957
3839,0.00639,-13.0957
3840,0.0064,-13.0957
3841,0.00641,-13.0957
3842,0.00642,-13.0957
3843,0.00643,-13.0957
3844,0.00644,-13.0957
3845,0.00645,-13.0957
3846,0.00646,-13.0957
3847,0.00647,-13.0957
3848,0.00648,-13.0957
3849,0.00649,-13.0957
3850,0.0065,-13.0957
3851,0.00651,-13.0957
3852,0.00652,-13.0957
3853,0.00653,-13.0957
3854,0.00654,-13.0957
3855,0.00655,-13.0957
3856,0.00656,-13.0957
3857,0.00657,-13.0957
3858,0.00658,-13.0957
3859,0.00659,-13.0957
3860,0.0066,-13.0957
3861,0.00661,-13.0957
3862,0.00662,-13.0957
3863,0.00663,-13.0957
3864,0.00664,-13.0957
3865,0.00665,-13.0957
3866,0.00666,-13.0957
3867,0.00667,-13.0957
3868,0.00668,-13.0957
3869,0.00669,-13.0957
3870,0.0067,-13.0957
3871,0.00671,-13.0957
3872,0.00672,-13.0957
3873,0.00673,-13.0957
3874,0.00674,-13.0957
3875,0.00675,-13.0957
3876,0.00676,-13.0957
3877,0.00677,-13.0957
3878,0.00678,-13.0957
3879,0.00679,-13.0957
3880,0.0068,-13.0957
3881,0.00681,-13.0957
3882,0.00682,-13.0957
3883,0.00683,-13.0957
3884,0.00684,-13.0957
3885,0.00685,-13.0957
3886,0.00686,-13.0957
3887,0.00687,-13.0957
3888,0.00688,-13.0957
3889,0.00689,-13.0957
3890,0.0069,-13.0957
3891,0.00691,-13.0957
3892,0.00692,-13.0957
3893,0.00693,-13.0957
3894,0.00694,-13.0957
3895,0.00695,-13.0957
3896,0.00696,-13.0957
3897,0.00697,-13.0957
3898,0.00698,-13.0957
3899,0.00699,-13.0957
3900,0.007,-13.0957
3901,0.00701,-13.0957
3902,0.00702,-13.0957
3903,0.00703,-13.0957
3904,0.00704,-13.0957
3905,0.00705,-13.0957
3906,0.00706,-13.0957
3907,0.00707,-13.0957
3908,0.00708,-13.0957
3909,0.00709,-13.0957
3910,0.0071,-13.0957
3911,0.00711,-13.0957
3912,0.00712,-13.0957
3913,0.00713,-13.0957
3914,0.00714,-13.0957
3915,0.00715,-13.0957
3916,0.00716,-13.0957
3917,0.00717,-13.0957
3918,0.00718,-13.0957
3919,0.00719,-13.0957
3920,0.0072,-13.0957
3921,0.00721,-13.0957
3922,0.00722,-13.0957
3923,0.00723,-13.0957
3924,0.00724,-13.0957
3925,0.00725,-13.0957
3926,0.00726,-13.0957
3927,0.00727,-13.0957
3928,0.00728,-13.0957
3929,0.00729,-13.0957
3930,0.0073,-13.0957
3931,0.00731,-13.0957
3932,0.00732,-13.0957
3933,0.00733,-13.0957
3934,0.00734,-13.0957
3935,0.00735,-13.0957
3936,0.00736,-13.0957
3937,0.00737,-13.0957
3938,0.00738,-13.0957
3939,0.00739,-13.0957
3940,0.0074,-13.0957
3941,0.00741,-13.0957
3942,0.00742,-13.0957
3943,0.00743,-13.0957
3944,0.00744,-13.0957
3945,0.00745,-13.0957
3946,0.00746,-13.0957
3947,0.00747,-13.0957
3948,0.00748,-13.0957
3949,0.00749,-13.0957
3950,0.0075,-13.0957
3951,0.00751,-13.0957
3952,0.00752,-13.0957
3953,0.00753,-13.0957
3954,0.00754,-13.0957
3955,0.00755,-13.0957
3956,0.00756,-13.0957
3957,0.00757,-13.0957
3958,0.00758,-13.0957
3959,0.00759,-13.0957
3960,0.0076,-13.0957
3961,0.00761,-13.0957
3962,0.00762,-13.0957
3963,0.00763,-13.0957
3964,0.00764,-13.0957
3965,0.00765,-13.0957
3966,0.00766,-13.0957
3967,0.00767,-13.0957
3968,0.00768,-13.0957
3969,0.00769,-13.1124
3970,0.0077,-13.1124
3971,0.00771,-13.0957
3972,0.00772,-13.0957
3973,0.00773,-13.0957
3974,0.00774,-13.0957
3975,0.00775,-13.0957
3976,0.00776,-13.0957
3977,0.00777,-13.0957
3978,0.00778,-13.0957
3979,0.00779,-13.0957
3980,0.0078,-13.0957
3981,0.00781,-13.0957
3982,0.00782,-13.0957
3983,0.00783,-13.0957
3984,0.00784,-13.0957
3985,0.00785,-13.0957
3986,0.00786,-13.0957
3987,0.00787,-13.0957
3988,0.00788,-13.0957
3989,0.00789,-13.0957
3990,0.0079,-13.1124
3991,0.00791,-13.0957
3992,0.00792,-13.0957
3993,0.00793,-13.0957
3994,0.00794,-13.0957
3995,0.00795,-13.0957
3996,0.00796,-13.0957
3997,0.00797,-13.1124
3998,0.00798,-13.0957
3999,0.00799,-13.0957
4000,0.008,-13.0957
4001,0.00801,-13.0957
4002,0.00802,-13.0957
4003,0.00803,-13.0957
4004,0.00804,-13.1124
4005,0.00805,-13.1124
4006,0.00806,-13.1124
4007,0.00807,-13.079
4008,0.00808,-13.1124
4009,0.00809,-13.1124
4010,0.0081,-13.1124
4011,0.00811,-13.1124
4012,0.00812,-13.1291
4013,0.00813,-13.0957
4014,0.00814,-13.1124
4015,0.00815,-13.0957
4016,0.00816,-13.0957
4017,0.00817,-13.0957
4018,0.00818,-13.1124
4019,0.00819,-13.1124
4020,0.0082,-13.0957
4021,0.00821,-13.1124
4022,0.00822,-13.1124
4023,0.00823,-13.1124
4024,0.00824,-13.1291
4025,0.00825,-13.0957
4026,0.00826,-13.1124
4027,0.00827,-13.0957
4028,0.00828,-13.1291
4029,0.00829,-13.1124
4030,0.0083,-13.1124
4031,0.00831,-13.1124
4032,0.00832,-13.1124
4033,0.00833,-13.0957
4034,0.00834,-13.1124
4035,0.00835,-13.1124
4036,0.00836,-13.1124
4037,0.00837,-13.1124
4038,0.00838,-13.0957
4039,0.00839,-13.1124
4040,0.0084,-13.1124
4041,0.00841,-13.0957
4042,0.00842,-13.1124
4043,0.00843,-13.1124
4044,0.00844,-13.0957
4045,0.00845,-13.1124
4046,0.00846,-13.1124
4047,0.00847,-13.1124
4048,0.00848,-13.1124
4049,0.00849,-13.1124
4050,0.0085,-13.0957
4051,0.00851,-13.1291
4052,0.00852,-13.1124
4053,0.00853,-13.0957
4054,0.00854,-13.1124
4055,0.00855,-13.1124
4056,0.00856,-13.1124
4057,0.00857,-13.1291
4058,0.00858,-13.0957
4059,0.00859,-13.1124
4060,0.0086,-13.1124
4061,0.00861,-13.0957
4062,0.00862,-13.0957
4063,0.00863,-13.1124
4064,0.00864,-13.1124
4065,0.00865,-13.1124
4066,0.00866,-13.1124
4067,0.00867,-13.1124
4068,0.00868,-13.1124
4069,0.00869,-13.1124
4070,0.0087,-13.1124
4071,0.00871,-13.1124
4072,0.00872,-13.1124
4073,0.00873,-13.1124
4074,0.00874,-13.1124
4075,0.00875,-13.1124
4076,0.00876,-13.1124
4077,0.00877,-13.1124
4078,0.00878,-13.1124
4079,0.00879,-13.1124
4080,0.0088,-13.1124
4081,0.00881,-13.1124
4082,0.00882,-13.1124
4083,0.00883,-13.1124
4084,0.00884,-13.1124
4085,0.00885,-13.1124
4086,0.00886,-13.1124
4087,0.00887,-13.1124
4088,0.00888,-13.1124
4089,0.00889,-13.1124
4090,0.0089,-13.1124
4091,0.00891,-13.1124
4092,0.00892,-13.1124
4093,0.00893,-13.1124
4094,0.00894,-13.1124
4095,0.00895,-13.1124
4096,0.00896,-13.1124
4097,0.00897,-13.1124
4098,0.00898,-13.1124
4099,0.00899,-13.1124
4100,0.009,-13.1124
4101,0.00901,-13.1124
4102,0.00902,-13.1124
4103,0.00903,-13.1124
4104,0.00904,-13.1124
4105,0.00905,-13.1124
4106,0.00906,-13.1124
4107,0.00907,-13.1124
4108,0.00908,-13.1124
4109,0.00909,-13.1124
4110,0.0091,-13.1124
4111,0.00911,-13.1124
4112,0.00912,-13.1124
4113,0.00913,-13.1124
4114,0.00914,-13.1124
4115,0.00915,-13.1124
4116,0.00916,-13.1124
4117,0.00917,-13.1124
4118,0.00918,-13.1124
4119,0.00919,-13.1124
4120,0.0092,-13.1124
4121,0.00921,-13.1124
4122,0.00922,-13.1124
4123,0.00923,-13.1124
4124,0.00924,-13.1124
4125,0.00925,-13.1124
4126,0.00926,-13.1124
4127,0.00927,-13.1124
4128,0.00928,-13.1124
4129,0.00929,-13.1124
4130,0.0093,-13.1124
4131,0.00931,-13.1124
4132,0.00932,-13.1124
4133,0.00933,-13.1124
4134,0.00934,-13.1124
4135,0.00935,-13.1124
4136,0.00936,-13.1124
4137,0.00937,-13.1124
4138,0.00938,-13.1124
4139,0.00939,-13.1124
4140,0.0094,-13.1124
4141,0.00941,-13.1124
4142,0.00942,-13.1124
4143,0.00943,-13.1124
4144,0.00944,-13.1124
4145,0.00945,-13.1124
4146,0.00946,-13.1124
4147,0.00947,-13.1124
4148,0.00948,-13.1124
4149,0.00949,-13.1124
4150,0.0095,-13.1124
4151,0.00951,-13.1124
4152,0.00952,-13.1124
4153,0.00953,-13.1124
4154,0.00954,-13.1124
4155,0.00955,-13.1124
4156,0.00956,-13.1124
4157,0.00957,-13.1124
4158,0.00958,-13.1124
4159,0.00959,-13.1124
4160,0.0096,-13.1124
4161,0.00961,-13.1124
4162,0.00962,-13.1124
4163,0.00963,-13.1124
4164,0.00964,-13.1124
4165,0.00965,-13.1124
4166,0.00966,-13.1124
4167,0.00967,-13.1124
4168,0.00968,-13.1124
4169,0.00969,-13.1124
4170,0.0097,-13.0957
4171,0.00971,-13.0957
4172,0.00972,-13.0957
4173,0.00973,-13.0957
4174,0.00974,-13.0957
4175,0.00975,-13.0957
4176,0.00976,-13.0957
4177,0.00977,-13.0957
4178,0.00978,-13.0957
4179,0.00979,-13.1124
4180,0.0098,-13.1124
4181,0.00981,-13.0957
4182,0.00982,-13.0957
4183,0.00983,-13.0957
4184,0.00984,-13.1124
4185,0.00985,-13.1124
4186,0.00986,-13.1124
4187,0.00987,-13.0957
4188,0.00988,-13.0957
4189,0.00989,-13.0957
4190,0.0099,-13.0957
4191,0.00991,-13.1124
4192,0.00992,-13.1124
4193,0.00993,-13.0957
4194,0.00994,-13.0957
4195,0.00995,-13.0957
4196,0.00996,-13.1124
4197,0.00997,-13.1124
4198,0.00998,-13.1124
4199,0.00999,-13.1124
4200,0.01,-13.1124
4201,0.01001,-13.1124
4202,0.01002,-13.1124
4203,0.01003,-13.1124
4204,0.01004,-13.1124
4205,0.01005,-13.1124
4206,0.01006,-13.1124
4207,0.01007,-13.1124
4208,0.01008,-13.1124
4209,0.01009,-13.1124
4210,0.0101,-13.1124
4211,0.01011,-13.1124
4212,0.01012,-13.1124
4213,0.01013,-13.1124
4214,0.01014,-13.1124
4215,0.01015,-13.1124
4216,0.01016,-13.1124
4217,0.01017,-13.1124
4218,0.01018,-13.1124
4219,0.01019,-13.1124
4220,0.0102,-13.1124
4221,0.01021,-13.1124
4222,0.01022,-13.1124
4223,0.01023,-13.1124
4224,0.01024,-13.1124
4225,0.01025,-13.1124
4226,0.01026,-13.1124
4227,0.01027,-13.1124
4228,0.01028,-13.1124
4229,0.01029,-13.1124
4230,0.0103,-13.1124
4231,0.01031,-13.1124
4232,0.01032,-13.1124
4233,0.01033,-13.1124
4234,0.01034,-13.1124
4235,0.01035,-13.1124
4236,0.01036,-13.1124
4237,0.01037,-13.1124
4238,0.01038,-13.1124
4239,0.01039,-13.1124
4240,0.0104,-13.1124
4241,0.01041,-13.1124
4242,0.01042,-13.1124
4243,0.01043,-13.1124
4244,0.01044,-13.1124
4245,0.01045,-13.1124
4246,0.01046,-13.1124
4247,0.01047,-13.1124
4248,0.01048,-13.1124
4249,0.01049,-13.1124
4250,0.0105,-13.1124
4251,0.01051,-13.1124
4252,0.01052,-13.1124
4253,0.01053,-13.1124
4254,0.01054,-13.1124
4255,0.01055,-13.1124
4256,0.01056,-13.1124
4257,0.01057,-13.1124
4258,0.01058,-13.1124
4259,0.01059,-13.1124
4260,0.0106,-13.1124
4261,0.01061,-13.1124
4262,0.01062,-13.1124
4263,0.01063,-13.1124
4264,0.01064,-13.1124
4265,0.01065,-13.1124
4266,0.01066,-13.1124
4267,0.01067,-13.1124
4268,0.01068,-13.1124
4269,0.01069,-13.1124
4270,0.0107,-13.1124
4271,0.01071,-13.1124
4272,0.01072,-13.1124
4273,0.01073,-13.1124
4274,0.01074,-13.1124
4275,0.01075,-13.1124
4276,0.01076,-13.1124
4277,0.01077,-13.1124
4278,0.01078,-13.1124
4279,0.01079,-13.1124
4280,0.0108,-13.1124
4281,0.01081,-13.1124
4282,0.01082,-13.1124
4283,0.01083,-13.1124
4284,0.01084,-13.1124
4285,0.01085,-13.1124
4286,0.01086,-13.1124
4287,0.01087,-13.1124
4288,0.01088,-13.1124
4289,0.01089,-13.1124
4290,0.0109,-13.1124
4291,0.01091,-13.1124
4292,0.01092,-13.1124
4293,0.01093,-13.1124
4294,0.01094,-13.1124
4295,0.01095,-13.1124
4296,0.01096,-13.1124
4297,0.01097,-13.1124
4298,0.01098,-13.1124
4299,0.01099,-13.1124
4300,0.011,-13.1124
4301,0.01101,-13.1124
4302,0.01102,-13.1124
4303,0.01103,-13.1124
4304,0.01104,-13.1124
4305,0.01105,-13.1124
4306,0.01106,-13.1124
4307,0.01107,-13.1124
4308,0.01108,-13.1124
4309,0.01109,-13.1124
4310,0.0111,-13.1124
4311,0.01111,-13.1124
4312,0.01112,-13.1124
4313,0.01113,-13.1124
4314,0.01114,-13.1124
4315,0.01115,-13.1124
4316,0.01116,-13.1124
4317,0.01117,-13.1124
4318,0.01118,-13.1124
4319,0.01119,-13.1124
4320,0.0112,-13.1124
4321,0.01121,-13.1124
4322,0.01122,-13.1124
4323,0.01123,-13.1124
4324,0.01124,-13.1124
4325,0.01125,-13.1124
4326,0.01126,-13.1124
4327,0.01127,-13.1124
4328,0.01128,-13.1124
4329,0.01129,-13.1124
4330,0.0113,-13.1124
4331,0.01131,-13.1124
4332,0.01132,-13.1124
4333,0.01133,-13.1124
4334,0.01134,-13.1124
4335,0.01135,-13.1124
4336,0.01136,-13.1124
4337,0.01137,-13.1124
4338,0.01138,-13.1124
4339,0.01139,-13.1124
4340,0.0114,-13.1124
4341,0.01141,-13.1124
4342,0.01142,-13.1124
4343,0.01143,-13.1124
4344,0.01144,-13.1124
4345,0.01145,-13.1124
4346,0.01146,-13.1124
4347,0.01147,-13.1124
4348,0.01148,-13.1124
4349,0.01149,-13.1124
4350,0.0115,-13.1124
4351,0.01151,-13.1124
4352,0.01152,-13.1124
4353,0.01153,-13.1124
4354,0.01154,-13.1124
4355,0.01155,-13.1124
4356,0.01156,-13.1124
4357,0.01157,-13.1291
4358,0.01158,-13.1291
4359,0.01159,-13.1291
4360,0.0116,-13.1291
4361,0.01161,-13.1291
4362,0.01162,-13.1291
4363,0.01163,-13.1291
4364,0.01164,-13.1291
4365,0.01165,-13.1291
4366,0.01166,-13.1291
4367,0.01167,-13.1291
4368,0.01168,-13.1291
4369,0.01169,-13.1291
4370,0.0117,-13.1291
4371,0.01171,-13.1291
4372,0.01172,-13.1291
4373,0.01173,-13.1291
4374,0.01174,-13.1291
4375,0.01175,-13.1291
4376,0.01176,-13.1291
4377,0.01177,-13.1291
4378,0.01178,-13.1291
4379,0.01179,-13.1291
4380,0.0118,-13.1291
4381,0.01181,-13.1291
4382,0.01182,-13.1291
4383,0.01183,-13.1291
4384,0.01184,-13.1291
4385,0.01185,-13.1291
4386,0.01186,-13.1291
4387,0.01187,-13.1291
4388,0.01188,-13.1291
4389,0.01189,-13.1291
4390,0.0119,-13.1291
4391,0.01191,-13.1291
4392,0.01192,-13.1291
4393,0.01193,-13.1291
4394,0.01194,-13.1291
4395,0.01195,-13.1291
4396,0.01196,-13.1291
4397,0.01197,-13.1291
4398,0.01198,-13.1291
4399,0.01199,-13.1291
4400,0.012,-13.1291
4401,0.01201,-13.1291
4402,0.01202,-13.1291
4403,0.01203,-13.1291
4404,0.01204,-13.1291
4405,0.01205,-13.1291
4406,0.01206,-13.1291
4407,0.01207,-13.1291
4408,0.01208,-13.1291
4409,0.01209,-13.1291
4410,0.0121,-13.1291
4411,0.01211,-13.1291
4412,0.01212,-13.1291
4413,0.01213,-13.1291
4414,0.01214,-13.1291
4415,0.01215,-13.1291
4416,0.01216,-13.1291
4417,0.01217,-13.1291
4418,0.01218,-13.1291
4419,0.01219,-13.1291
4420,0.0122,-13.1291
4421,0.01221,-13.1291
4422,0.01222,-13.1291
4423,0.01223,-13.1291
4424,0.01224,-13.1291
4425,0.01225,-13.1291
4426,0.01226,-13.1291
4427,0.01227,-13.1291
4428,0.01228,-13.1291
4429,0.01229,-13.1291
4430,0.0123,-13.1291
4431,0.01231,-13.1291
4432,0.01232,-13.1291
4433,0.01233,-13.1291
4434,0.01234,-13.1291
4435,0.01235,-13.1291
4436,0.01236,-13.1291
4437,0.01237,-13.1291
4438,0.01238,-13.1291
4439,0.01239,-13.1291
4440,0.0124,-13.1291
4441,0.01241,-13.1291
4442,0.01242,-13.1291
4443,0.01243,-13.1291
4444,0.01244,-13.1291
4445,0.01245,-13.1291
4446,0.01246,-13.1291
4447,0.01247,-13.1291
4448,0.01248,-13.1291
4449,0.01249,-13.1291
4450,0.0125,-13.1291
4451,0.01251,-13.1291
4452,0.01252,-13.1291
4453,0.01253,-13.1291
4454,0.01254,-13.1291
4455,0.01255,-13.1291
4456,0.01256,-13.1291
4457,0.01257,-13.1291
4458,0.01258,-13.1291
4459,0.01259,-13.1291
4460,0.0126,-13.1291
4461,0.01261,-13.1291
4462,0.01262,-13.1124
4463,0.01263,-13.1291
4464,0.01264,-13.1291
4465,0.01265,-13.1291
4466,0.01266,-13.1291
4467,0.01267,-13.1291
4468,0.01268,-13.1124
4469,0.01269,-13.1124
4470,0.0127,-13.1291
4471,0.01271,-13.1291
4472,0.01272,-13.1291
4473,0.01273,-13.1291
4474,0.01274,-13.1291
4475,0.01275,-13.1291
4476,0.01276,-13.1291
4477,0.01277,-13.0957
4478,0.01278,-13.1291
4479,0.01279,-13.1291
4480,0.0128,-13.1124
4481,0.01281,-13.1124
4482,0.01282,-13.1124
4483,0.01283,-13.1124
4484,0.01284,-13.1124
4485,0.01285,-13.1124
4486,0.01286,-13.1458
4487,0.01287,-13.1124
4488,0.01288,-13.1124
4489,0.01289,-13.1291
4490,0.0129,-13.1124
4491,0.01291,-13.1291
4492,0.01292,-13.1124
4493,0.01293,-13.1124
4494,0.01294,-13.1124
4495,0.01295,-13.1458
4496,0.01296,-13.1124
4497,0.01297,-13.1124
4498,0.01298,-13.1124
4499,0.01299,-13.1124
4500,0.013,-13.1124
4501,0.01301,-13.1124
4502,0.01302,-13.1124
4503,0.01303,-13.1124
4504,0.01304,-13.1124
4505,0.01305,-13.1124
4506,0.01306,-13.1124
4507,0.01307,-13.1124
4508,0.01308,-13.1124
4509,0.01309,-13.1124
4510,0.0131,-13.1124
4511,0.01311,-13.1124
4512,0.01312,-13.1124
4513,0.01313,-13.1124
4514,0.01314,-13.1124
4515,0.01315,-13.1124
4516,0.01316,-13.1124
4517,0.01317,-13.1124
4518,0.01318,-13.1124
4519,0.01319,-13.1124
4520,0.0132,-13.1124
4521,0.01321,-13.1124
4522,0.01322,-13.1124
4523,0.01323,-13.1124
4524,0.01324,-13.1124
4525,0.01325,-13.1124
4526,0.01326,-13.1124
4527,0.01327,-13.1124
4528,0.01328,-13.1124
4529,0.01329,-13.1124
4530,0.0133,-13.1124
4531,0.01331,-13.1124
4532,0.01332,-13.1124
4533,0.01333,-13.1124
4534,0.01334,-13.1124
4535,0.01335,-13.1124
4536,0.01336,-13.1124
4537,0.01337,-13.1124
4538,0.01338,-13.1124
4539,0.01339,-13.1124
4540,0.0134,-13.1124
4541,0.01341,-13.1124
4542,0.01342,-13.1124
4543,0.01343,-13.1124
4544,0.01344,-13.1124
4545,0.01345,-13.1124
4546,0.01346,-13.1124
4547,0.01347,-13.1124
4548,0.01348,-13.1124
4549,0.01349,-13.1124
4550,0.0135,-13.1124
4551,0.01351,-13.1124
4552,0.01352,-13.1124
4553,0.01353,-13.1124
4554,0.01354,-13.1124
4555,0.01355,-13.1124
4556,0.01356,-13.1124
4557,0.01357,-13.1124
4558,0.01358,-13.1124
4559,0.01359,-13.1124
4560,0.0136,-13.1124
4561,0.01361,-13.1124
4562,0.01362,-13.1124
4563,0.01363,-13.1124
4564,0.01364,-13.1124
4565,0.01365,-13.0957
4566,0.01366,-13.1291
4567,0.01367,-13.1124
4568,0.01368,-13.1124
4569,0.01369,-13.1124
4570,0.0137,-13.1124
4571,0.01371,-13.1124
4572,0.01372,-13.1124
4573,0.01373,-13.1124
4574,0.01374,-13.1124
4575,0.01375,-13.1124
4576,0.01376,-13.1124
4577,0.01377,-13.1124
4578,0.01378,-13.0957
4579,0.01379,-13.1124
4580,0.0138,-13.0957
4581,0.01381,-13.0957
4582,0.01382,-13.0957
4583,0.01383,-13.0957
4584,0.01384,-13.0957
4585,0.01385,-13.0957
4586,0.01386,-13.0957
4587,0.01387,-13.0957
4588,0.01388,-13.0957
4589,0.01389,-13.0957
4590,0.0139,-13.0957
4591,0.01391,-13.0957
4592,0.01392,-13.0957
4593,0.01393,-13.0957
4594,0.01394,-13.0957
4595,0.01395,-13.0957
4596,0.01396,-13.0957
4597,0.01397,-13.0957
4598,0.01398,-13.0957
4599,0.01399,-13.0957
4600,0.014,-13.0957
4601,0.01401,-13.0957
4602,0.01402,-13.0957
4603,0.01403,-13.1124
4604,0.01404,-13.0957
4605,0.01405,-13.0957
4606,0.01406,-13.0957
4607,0.01407,-13.0957
4608,0.01408,-13.0957
4609,0.01409,-13.0957
4610,0.0141,-13.0957
4611,0.01411,-13.0957
4612,0.01412,-13.0957
4613,0.01413,-13.0957
4614,0.01414,-13.0957
4615,0.01415,-13.0957
4616,0.01416,-13.0957
4617,0.01417,-13.0957
4618,0.01418,-13.0957
4619,0.01419,-13.0957
4620,0.0142,-13.0957
4621,0.01421,-13.0957
4622,0.01422,-13.0957
4623,0.01423,-13.0957
4624,0.01424,-13.0957
4625,0.01425,-13.0957
4626,0.01426,-13.0957
4627,0.01427,-13.0957
4628,0.01428,-13.079
4629,0.01429,-13.079
4630,0.0143,-13.079
4631,0.01431,-13.079
4632,0.01432,-13.079
4633,0.01433,-13.079
4634,0.01434,-13.079
4635,0.01435,-13.079
4636,0.01436,-13.079
4637,0.01437,-13.079
4638,0.01438,-13.079
4639,0.01439,-13.079
4640,0.0144,-13.079
4641,0.01441,-13.079
4642,0.01442,-13.079
4643,0.01443,-13.079
4644,0.01444,-13.079
4645,0.01445,-13.079
4646,0.01446,-13.079
4647,0.01447,-13.079
4648,0.01448,-13.079
4649,0.01449,-13.079
4650,0.0145,-13.079
4651,0.01451,-13.079
4652,0.01452,-13.079
4653,0.01453,-13.079
4654,0.01454,-13.079
4655,0.01455,-13.079
4656,0.01456,-13.079
4657,0.01457,-13.079
4658,0.01458,-13.079
4659,0.01459,-13.079
4660,0.0146,-13.079
4661,0.01461,-13.079
4662,0.01462,-13.079
4663,0.01463,-13.079
4664,0.01464,-13.079
4665,0.01465,-13.079
4666,0.01466,-13.079
4667,0.01467,-13.0623
4668,0.01468,-13.0957
4669,0.01469,-13.079
4670,0.0147,-13.0623
4671,0.01471,-13.079
4672,0.01472,-13.079
4673,0.01473,-13.0623
4674,0.01474,-13.0623
4675,0.01475,-13.0623
4676,0.01476,-13.0623
4677,0.01477,-13.0623
4678,0.01478,-13.0623
4679,0.01479,-13.0623
4680,0.0148,-13.0623
4681,0.01481,-13.0623
4682,0.01482,-13.0623
4683,0.01483,-13.0623
4684,0.01484,-13.0623
4685,0.01485,-13.0623
4686,0.01486,-13.0623
4687,0.01487,-13.0623
4688,0.01488,-13.0623
4689,0.01489,-13.0623
4690,0.0149,-13.0623
4691,0.01491,-13.0623
4692,0.01492,-13.0623
4693,0.01493,-13.0623
4694,0.01494,-13.0623
4695,0.01495,-13.0623
4696,0.01496,-13.0289
4697,0.01497,-13.0289
4698,0.01498,-13.0289
4699,0.01499,-13.0289
4700,0.015,-13.0289
4701,0.01501,-13.0289
4702,0.01502,-13.0289
4703,0.01503,-13.0289
4704,0.01504,-13.0289
4705,0.01505,-13.0289
4706,0.01506,-13.0289
4707,0.01507,-13.0289
4708,0.01508,-13.0122
4709,0.01509,-13.0122
4710,0.0151,-13.0122
4711,0.01511,-13.0122
4712,0.01512,-13.0122
4713,0.01513,-13.0122
4714,0.01514,-13.0122
4715,0.01515,-13.0122
4716,0.01516,-13.0122
4717,0.01517,-13.0122
4718,0.01518,-13.0122
4719,0.01519,-12.9955
4720,0.0152,-12.9955
4721,0.01521,-12.9955
4722,0.01522,-12.912
4723,0.01523,-13.9977
4724,0.01524,2.08797
4725,0.01525,10.8574
4726,0.01526,10.7405
4727,0.01527,10.7572
4728,0.01528,10.7238
4729,0.01529,10.6904
4730,0.0153,10.8073
4731,0.01531,10.9743
4732,0.01532,10.7906
4733,0.01533,10.8741
4734,0.01534,11.108
4735,0.01535,11.0245
4736,0.01536,10.9743
4737,0.01537,11.2416
4738,0.01538,11.2082
4739,0.01539,11.1247
4740,0.0154,11.3919
4741,0.01541,11.4086
4742,0.01542,11.2249
4743,0.01543,11.5089
4744,0.01544,11.5757
4745,0.01545,11.3752
4746,0.01546,11.6258
4747,0.01547,11.7093
4748,0.01548,11.4922
4749,0.01549,11.6926
4750,0.0155,11.8262
4751,0.01551,11.6258
4752,0.01552,11.7761
4753,0.01553,11.9098
4754,0.01554,11.7427
4755,0.01555,11.8262
4756,0.01556,11.9766
4757,0.01557,11.8596
4758,0.01558,11.8596
4759,0.01559,12.0267
4760,0.0156,11.9766
4761,0.01561,11.8763
4762,0.01562,12.1102
4763,0.01563,12.0601
4764,0.01564,11.893
4765,0.01565,12.1603
4766,0.01566,12.1603
4767,0.01567,11.9265
4768,0.01568,12.177
4769,0.01569,12.2104
4770,0.0157,11.9766
4771,0.01571,12.1937
4772,0.01572,12.2605
4773,0.01573,12.01
4774,0.01574,12.2104
4775,0.01575,12.3273
4776,0.01576,12.1102
4777,0.01577,12.1937
4778,0.01578,12.3608
4779,0.01579,12.1603
4780,0.0158,12.1937
4781,0.01581,12.3942
4782,0.01582,12.2438
4783,0.01583,12.1937
4784,0.01584,12.4109
4785,0.01585,12.3273
4786,0.01586,12.177
4787,0.01587,12.4109
4788,0.01588,12.3942
4789,0.01589,12.177
4790,0.0159,12.4109
4791,0.01591,12.4443
4792,0.01592,12.177
4793,0.01593,12.4276
4794,0.01594,11.9766
4795,0.01595,12.2438
4796,0.01596,-14.7327
4797,0.01597,-13.1959
4798,0.01598,-13.5634
4799,0.01599,-13.4632
4800,0.016,-13.363
4801,0.01601,-13.2628
4802,0.01602,-13.2126
4803,0.01603,-13.1458
4804,0.01604,-13.1291
4805,0.01605,-13.0957
4806,0.01606,-13.079
4807,0.01607,-13.0623
4808,0.01608,-13.0623
4809,0.01609,-13.0289
4810,0.0161,-13.0289
4811,0.01611,-13.0289
4812,0.01612,-13.0289
4813,0.01613,-13.0122
4814,0.01614,-13.0122
4815,0.01615,-13.0122
4816,0.01616,-13.0122
4817,0.01617,-13.0122
4818,0.01618,-13.0122
4819,0.01619,-13.0122
4820,0.0162,-13.0122
4821,0.01621,-13.0122
4822,0.01622,-13.0122
4823,0.01623,-13.0122
4824,0.01624,-13.0122
4825,0.01625,-13.0122
4826,0.01626,-13.0122
4827,0.01627,-13.0122
4828,0.01628,-13.0122
4829,0.01629,-13.0122
4830,0.0163,-13.0122
4831,0.01631,-13.0122
4832,0.01632,-13.0289
4833,0.01633,-13.0289
4834,0.01634,-13.0289
4835,0.01635,-12.9955
4836,0.01636,-13.0623
4837,0.01637,-13.0122
4838,0.01638,-13.0122
4839,0.01639,-13.0289
4840,0.0164,-13.0289
4841,0.01641,-13.0289
4842,0.01642,-13.0289
4843,0.01643,-13.0289
4844,0.01644,-13.0289
4845,0.01645,-13.0289
4846,0.01646,-13.0289
4847,0.01647,-13.0289
4848,0.01648,-13.0289
4849,0.01649,-13.0289
4850,0.0165,-13.0289
4851,0.01651,-13.0289
4852,0.01652,-13.0289
4853,0.01653,-13.0289
4854,0.01654,-13.0289
4855,0.01655,-13.0289
4856,0.01656,-13.0289
4857,0.01657,-13.0289
4858,0.01658,-13.0289
4859,0.01659,-13.0289
4860,0.0166,-13.0289
4861,0.01661,-13.0289
4862,0.01662,-13.0289
4863,0.01663,-13.0289
4864,0.01664,-13.0289
4865,0.01665,-13.0289
4866,0.01666,-13.0289
4867,0.01667,-13.0289
4868,0.01668,-13.0289
4869,0.01669,-13.0289
4870,0.0167,-13.0289
4871,0.01671,-13.0289
4872,0.01672,-13.0289
4873,0.01673,-13.0289
4874,0.01674,-13.0289
4875,0.01675,-13.0289
4876,0.01676,-13.0289
4877,0.01677,-13.0289
4878,0.01678,-13.0289
4879,0.01679,-13.0289
4880,0.0168,-13.0289
4881,0.01681,-13.0289
4882,0.01682,-13.0289
4883,0.01683,-13.0289
4884,0.01684,-13.0289
4885,0.01685,-13.0289
4886,0.01686,-13.0289
4887,0.01687,-13.0289
4888,0.01688,-13.0289
4889,0.01689,-13.0289
4890,0.0169,-13.0289
4891,0.01691,-13.0623
4892,0.01692,-13.0289
4893,0.01693,-13.0289
4894,0.01694,-13.0289
4895,0.01695,-13.0289
4896,0.01696,-13.0623
4897,0.01697,-13.0623
4898,0.01698,-13.0623
4899,0.01699,-13.0122
4900,0.017,-13.0623
4901,0.01701,-13.079
4902,0.01702,-13.0289
4903,0.01703,-13.0623
4904,0.01704,-13.0623
4905,0.01705,-13.0623
4906,0.01706,-13.0623
4907,0.01707,-13.0623
4908,0.01708,-13.0623
4909,0.01709,-13.0623
4910,0.0171,-13.0623
4911,0.01711,-13.0623
4912,0.01712,-13.0623
4913,0.01713,-13.0623
4914,0.01714,-13.0623
4915,0.01715,-13.0623
4916,0.01716,-13.0623
4917,0.01717,-13.0623
4918,0.01718,-13.0623
4919,0.01719,-13.0623
4920,0.0172,-13.0623
4921,0.01721,-13.0623
4922,0.01722,-13.0623
4923,0.01723,-13.0623
4924,0.01724,-13.0623
4925,0.01725,-13.0623
4926,0.01726,-13.0623
4927,0.01727,-13.0623
4928,0.01728,-13.0623
4929,0.01729,-13.0623
4930,0.0173,-13.0623
4931,0.01731,-13.0623
4932,0.01732,-13.0623
4933,0.01733,-13.0623
4934,0.01734,-13.0623
4935,0.01735,-13.0623
4936,0.01736,-13.0623
4937,0.01737,-13.0623
4938,0.01738,-13.0623
4939,0.01739,-13.0623
4940,0.0174,-13.0623
4941,0.01741,-13.0623
4942,0.01742,-13.0623
4943,0.01743,-13.0623
4944,0.01744,-13.0623
4945,0.01745,-13.0623
4946,0.01746,-13.0623
4947,0.01747,-13.0623
4948,0.01748,-13.0623
4949,0.01749,-13.0623
4950,0.0175,-13.0623
4951,0.01751,-13.0623
4952,0.01752,-13.0623
4953,0.01753,-13.0623
4954,0.01754,-13.0623
4955,0.01755,-13.0623
4956,0.01756,-13.0623
4957,0.01757,-13.0623
4958,0.01758,-13.0623
4959,0.01759,-13.0623
4960,0.0176,-13.0623
4961,0.01761,-13.0623
4962,0.01762,-13.0623
4963,0.01763,-13.0623
4964,0.01764,-13.0623
4965,0.01765,-13.0623
4966,0.01766,-13.0623
4967,0.01767,-13.0623
4968,0.01768,-13.0623
4969,0.01769,-13.0623
4970,0.0177,-13.0623
4971,0.01771,-13.0623
4972,0.01772,-13.0623
4973,0.01773,-13.0623
4974,0.01774,-13.0623
4975,0.01775,-13.0623
4976,0.01776,-13.0623
4977,0.01777,-13.0623
4978,0.01778,-13.0623
4979,0.01779,-13.0623
4980,0.0178,-13.0623
4981,0.01781,-13.0623
4982,0.01782,-13.0623
4983,0.01783,-13.0623
4984,0.01784,-13.0623
4985,0.01785,-13.0623
4986,0.01786,-13.0623
4987,0.01787,-13.0623
4988,0.01788,-13.0623
4989,0.01789,-13.0623
4990,0.0179,-13.0623
4991,0.01791,-13.0623
4992,0.01792,-13.0623
4993,0.01793,-13.0623
4994,0.01794,-13.0623
4995,0.01795,-13.0623
4996,0.01796,-13.0623
4997,0.01797,-13.0623
4998,0.01798,-13.0623
4999,0.01799,-13.0623
5000,0.018,-13.0623
5001,0.01801,-13.0623
5002,0.01802,-13.0623
5003,0.01803,-13.0623
5004,0.01804,-13.0623
5005,0.01805,-13.0623
5006,0.01806,-13.0623
5007,0.01807,-13.0623
5008,0.01808,-13.0623
5009,0.01809,-13.0623
5010,0.0181,-13.0623
5011,0.01811,-13.0623
5012,0.01812,-13.0623
5013,0.01813,-13.0623
5014,0.01814,-13.0623
5015,0.01815,-13.0623
5016,0.01816,-13.0623
5017,0.01817,-13.0623
5018,0.01818,-13.0623
5019,0.01819,-13.0623
5020,0.0182,-13.0623
5021,0.01821,-13.0623
5022,0.01822,-13.0623
5023,0.01823,-13.0623
5024,0.01824,-13.0623
5025,0.01825,-13.0623
5026,0.01826,-13.0623
5027,0.01827,-13.0623
5028,0.01828,-13.0623
5029,0.01829,-13.0623
5030,0.0183,-13.0623
5031,0.01831,-13.0623
5032,0.01832,-13.0623
5033,0.01833,-13.0623
5034,0.01834,-13.0623
5035,0.01835,-13.0623
5036,0.01836,-13.0623
5037,0.01837,-13.0623
5038,0.01838,-13.0623
5039,0.01839,-13.0623
5040,0.0184,-13.0623
5041,0.01841,-13.0623
5042,0.01842,-13.0623
5043,0.01843,-13.0623
5044,0.01844,-13.0623
5045,0.01845,-13.0623
5046,0.01846,-13.0623
5047,0.01847,-13.0623
5048,0.01848,-13.0623
5049,0.01849,-13.0623
5050,0.0185,-13.0623
5051,0.01851,-13.079
5052,0.01852,-13.079
5053,0.01853,-13.0623
5054,0.01854,-13.0623
5055,0.01855,-13.0623
5056,0.01856,-13.0623
5057,0.01857,-13.0623
5058,0.01858,-13.0623
5059,0.01859,-13.0623
5060,0.0186,-13.0623
5061,0.01861,-13.0623
5062,0.01862,-13.079
5063,0.01863,-13.079
5064,0.01864,-13.079
5065,0.01865,-13.079
5066,0.01866,-13.079
5067,0.01867,-13.079
5068,0.01868,-13.079
5069,0.01869,-13.079
5070,0.0187,-13.079
5071,0.01871,-13.079
5072,0.01872,-13.079
5073,0.01873,-13.0623
5074,0.01874,-13.0623
5075,0.01875,-13.079
5076,0.01876,-13.0957
5077,0.01877,-13.0623
5078,0.01878,-13.079
5079,0.01879,-13.079
5080,0.0188,-13.079
5081,0.01881,-13.079
5082,0.01882,-13.079
5083,0.01883,-13.079
5084,0.01884,-13.079
5085,0.01885,-13.079
5086,0.01886,-13.079
5087,0.01887,-13.079
5088,0.01888,-13.079
5089,0.01889,-13.079
5090,0.0189,-13.079
5091,0.01891,-13.079
5092,0.01892,-13.079
5093,0.01893,-13.079
5094,0.01894,-13.079
5095,0.01895,-13.079
5096,0.01896,-13.079
5097,0.01897,-13.079
5098,0.01898,-13.079
5099,0.01899,-13.079
5100,0.019,-13.079
5101,0.01901,-13.079
5102,0.01902,-13.079
5103,0.01903,-13.079
5104,0.01904,-13.079
5105,0.01905,-13.079
5106,0.01906,-13.079
5107,0.01907,-13.079
5108,0.01908,-13.079
5109,0.01909,-13.079
5110,0.0191,-13.079
5111,0.01911,-13.079
5112,0.01912,-13.079
5113,0.01913,-13.079
5114,0.01914,-13.079
5115,0.01915,-13.079
5116,0.01916,-13.079
5117,0.01917,-13.079
5118,0.01918,-13.079
5119,0.01919,-13.079
5120,0.0192,-13.079
5121,0.01921,-13.079
5122,0.01922,-13.079
5123,0.01923,-13.079
5124,0.01924,-13.079
5125,0.01925,-13.079
5126,0.01926,-13.079
5127,0.01927,-13.079
5128,0.01928,-13.079
5129,0.01929,-13.079
5130,0.0193,-13.079
5131,0.01931,-13.079
5132,0.01932,-13.079
5133,0.01933,-13.079
5134,0.01934,-13.079
5135,0.01935,-13.079
5136,0.01936,-13.079
5137,0.01937,-13.079
5138,0.01938,-13.079
5139,0.01939,-13.079
5140,0.0194,-13.079
5141,0.01941,-13.079
5142,0.01942,-13.079
5143,0.01943,-13.079
5144,0.01944,-13.079
5145,0.01945,-13.079
5146,0.01946,-13.079
5147,0.01947,-13.079
5148,0.01948,-13.079
5149,0.01949,-13.079
5150,0.0195,-13.079
5151,0.01951,-13.079
5152,0.01952,-13.079
5153,0.01953,-13.079
5154,0.01954,-13.079
5155,0.01955,-13.079
5156,0.01956,-13.079
5157,0.01957,-13.079
5158,0.01958,-13.079
5159,0.01959,-13.079
5160,0.0196,-13.079
5161,0.01961,-13.079
5162,0.01962,-13.079
5163,0.01963,-13.079
5164,0.01964,-13.079
5165,0.01965,-13.079
5166,0.01966,-13.079
5167,0.01967,-13.079
5168,0.01968,-13.079
5169,0.01969,-13.079
5170,0.0197,-13.079
5171,0.01971,-13.079
5172,0.01972,-13.079
5173,0.01973,-13.079
5174,0.01974,-13.079
5175,0.01975,-13.079
5176,0.01976,-13.079
5177,0.01977,-13.079
5178,0.01978,-13.079
5179,0.01979,-13.079
5180,0.0198,-13.079
5181,0.01981,-13.079
5182,0.01982,-13.079
5183,0.01983,-13.079
5184,0.01984,-13.079
5185,0.01985,-13.079
5186,0.01986,-13.079
5187,0.01987,-13.079
5188,0.01988,-13.079
5189,0.01989,-13.079
5190,0.0199,-13.079
5191,0.01991,-13.079
5192,0.01992,-13.079
5193,0.01993,-13.079
5194,0.01994,-13.079
5195,0.01995,-13.079
5196,0.01996,-13.079
5197,0.01997,-13.079
5198,0.01998,-13.079
5199,0.01999,-13.079
5200,0.02,-13.079
5201,0.02001,-13.079
5202,0.02002,-13.079
5203,0.02003,-13.079
5204,0.02004,-13.079
5205,0.02005,-13.079
5206,0.02006,-13.079
5207,0.02007,-13.079
5208,0.02008,-13.079
5209,0.02009,-13.079
5210,0.0201,-13.079
5211,0.02011,-13.079
5212,0.02012,-13.079
5213,0.02013,-13.079
5214,0.02014,-13.079
5215,0.02015,-13.079
5216,0.02016,-13.079
5217,0.02017,-13.079
5218,0.02018,-13.079
5219,0.02019,-13.079
5220,0.0202,-13.079
5221,0.02021,-13.079
5222,0.02022,-13.079
5223,0.02023,-13.079
5224,0.02024,-13.079
5225,0.02025,-13.079
5226,0.02026,-13.079
5227,0.02027,-13.079
5228,0.02028,-13.079
5229,0.02029,-13.079
5230,0.0203,-13.079
5231,0.02031,-13.0957
5232,0.02032,-13.079
5233,0.02033,-13.079
5234,0.02034,-13.0957
5235,0.02035,-13.079
5236,0.02036,-13.1124
5237,0.02037,-13.079
5238,0.02038,-13.079
5239,0.02039,-13.079
5240,0.0204,-13.079
5241,0.02041,-13.079
5242,0.02042,-13.079
5243,0.02043,-13.079
5244,0.02044,-13.079
5245,0.02045,-13.079
5246,0.02046,-13.079
5247,0.02047,-13.079
5248,0.02048,-13.079
5249,0.02049,-13.079
5250,0.0205,-13.0957
5251,0.02051,-13.0957
5252,0.02052,-13.0957
5253,0.02053,-13.079
5254,0.02054,-13.079
5255,0.02055,-13.0957
5256,0.02056,-13.0957
5257,0.02057,-13.0957
5258,0.02058,-13.0957
5259,0.02059,-13.0957
5260,0.0206,-13.0957
5261,0.02061,-13.0957
5262,0.02062,-13.0957
5263,0.02063,-13.0957
5264,0.02064,-13.079
5265,0.02065,-13.0957
5266,0.02066,-13.0957
5267,0.02067,-13.0957
5268,0.02068,-13.0957
5269,0.02069,-13.0957
5270,0.0207,-13.1124
5271,0.02071,-13.079
5272,0.02072,-13.0957
5273,0.02073,-13.0957
5274,0.02074,-13.0957
5275,0.02075,-13.0957
5276,0.02076,-13.0957
5277,0.02077,-13.0957
5278,0.02078,-13.0957
5279,0.02079,-13.0957
5280,0.0208,-13.0957
5281,0.02081,-13.0957
5282,0.02082,-13.0957
5283,0.02083,-13.0957
5284,0.02084,-13.0957
5285,0.02085,-13.0957
5286,0.02086,-13.0957
5287,0.02087,-13.0957
5288,0.02088,-13.0957
5289,0.02089,-13.0957
5290,0.0209,-13.0957
5291,0.02091,-13.0957
5292,0.02092,-13.0957
5293,0.02093,-13.0957
5294,0.02094,-13.0957
5295,0.02095,-13.0957
5296,0.02096,-13.0957
5297,0.02097,-13.0957
5298,0.02098,-13.0957
5299,0.02099,-13.0957
5300,0.021,-13.0957
5301,0.02101,-13.0957
5302,0.02102,-13.0957
5303,0.02103,-13.0957
5304,0.02104,-13.0957
5305,0.02105,-13.0957
5306,0.02106,-13.0957
5307,0.02107,-13.0957
5308,0.02108,-13.0957
5309,0.02109,-13.0957
5310,0.0211,-13.0957
5311,0.02111,-13.0957
5312,0.02112,-13.0957
5313,0.02113,-13.0957
5314,0.02114,-13.0957
5315,0.02115,-13.0957
5316,0.02116,-13.0957
5317,0.02117,-13.0957
5318,0.02118,-13.0957
5319,0.02119,-13.0957
5320,0.0212,-13.0957
5321,0.02121,-13.0957
5322,0.02122,-13.0957
5323,0.02123,-13.0957
5324,0.02124,-13.0957
5325,0.02125,-13.0957
5326,0.02126,-13.0957
5327,0.02127,-13.0957
5328,0.02128,-13.0957
5329,0.02129,-13.0957
5330,0.0213,-13.0957
5331,0.02131,-13.0957
5332,0.02132,-13.0957
5333,0.02133,-13.0957
5334,0.02134,-13.0957
5335,0.02135,-13.0957
5336,0.02136,-13.0957
5337,0.02137,-13.0957
5338,0.02138,-13.0957
5339,0.02139,-13.0957
5340,0.0214,-13.0957
5341,0.02141,-13.0957
5342,0.02142,-13.0957
5343,0.02143,-13.0957
5344,0.02144,-13.0957
5345,0.02145,-13.0957
5346,0.02146,-13.0957
5347,0.02147,-13.0957
5348,0.02148,-13.0957
5349,0.02149,-13.0957
5350,0.0215,-13.0957
5351,0.02151,-13.0957
5352,0.02152,-13.0957
5353,0.02153,-13.0957
5354,0.02154,-13.0957
5355,0.02155,-13.0957
5356,0.02156,-13.0957
5357,0.02157,-13.0957
5358,0.02158,-13.0957
5359,0.02159,-13.0957
5360,0.0216,-13.0957
5361,0.02161,-13.0957
5362,0.02162,-13.0957
5363,0.02163,-13.0957
5364,0.02164,-13.0957
5365,0.02165,-13.0957
5366,0.02166,-13.0957
5367,0.02167,-13.0957
5368,0.02168,-13.0957
5369,0.02169,-13.0957
5370,0.0217,-13.0957
5371,0.02171,-13.0957
5372,0.02172,-13.0957
5373,0.02173,-13.0957
5374,0.02174,-13.0957
5375,0.02175,-13.0957
5376,0.02176,-13.0957
5377,0.02177,-13.0957
5378,0.02178,-13.0957
5379,0.02179,-13.0957
5380,0.0218,-13.0957
5381,0.02181,-13.0957
5382,0.02182,-13.0957
5383,0.02183,-13.0957
5384,0.02184,-13.0957
5385,0.02185,-13.0957
5386,0.02186,-13.0957
5387,0.02187,-13.0957
5388,0.02188,-13.0957
5389,0.02189,-13.0957
5390,0.0219,-13.0957
5391,0.02191,-13.0957
5392,0.02192,-13.0957
5393,0.02193,-13.0957
5394,0.02194,-13.0957
5395,0.02195,-13.0957
5396,0.02196,-13.0957
5397,0.02197,-13.0957
5398,0.02198,-13.0957
5399,0.02199,-13.0957
5400,0.022,-13.0957
5401,0.02201,-13.0957
5402,0.02202,-13.0957
5403,0.02203,-13.0957
5404,0.02204,-13.0957
5405,0.02205,-13.0957
5406,0.02206,-13.0957
5407,0.02207,-13.0957
5408,0.02208,-13.0957
5409,0.02209,-13.0957
5410,0.0221,-13.0957
5411,0.02211,-13.0957
5412,0.02212,-13.0957
5413,0.02213,-13.0957
5414,0.02214,-13.0957
5415,0.02215,-13.0957
5416,0.02216,-13.0957
5417,0.02217,-13.0957
5418,0.02218,-13.0957
5419,0.02219,-13.0957
5420,0.0222,-13.0957
5421,0.02221,-13.0957
5422,0.02222,-13.0957
5423,0.02223,-13.0957
5424,0.02224,-13.0957
5425,0.02225,-13.0957
5426,0.02226,-13.0957
5427,0.02227,-13.0957
5428,0.02228,-13.0957
5429,0.02229,-13.0957
5430,0.0223,-13.0957
5431,0.02231,-13.0957
5432,0.02232,-13.0957
5433,0.02233,-13.0957
5434,0.02234,-13.0957
5435,0.02235,-13.0957
5436,0.02236,-13.0957
5437,0.02237,-13.0957
5438,0.02238,-13.0957
5439,0.02239,-13.0957
5440,0.0224,-13.0957
5441,0.02241,-13.0957
5442,0.02242,-13.0957
5443,0.02243,-13.0957
5444,0.02244,-13.0957
5445,0.02245,-13.0957
5446,0.02246,-13.0957
5447,0.02247,-13.0957
5448,0.02248,-13.0957
5449,0.02249,-13.0957
5450,0.0225,-13.0957
5451,0.02251,-13.0957
5452,0.02252,-13.0957
5453,0.02253,-13.0957
5454,0.02254,-13.0957
5455,0.02255,-13.0957
5456,0.02256,-13.0957
5457,0.02257,-13.0957
5458,0.02258,-13.0957
5459,0.02259,-13.0957
5460,0.0226,-13.0957
5461,0.02261,-13.0957
5462,0.02262,-13.0957
5463,0.02263,-13.0957
5464,0.02264,-13.0957
5465,0.02265,-13.0957
5466,0.02266,-13.0957
5467,0.02267,-13.0957
5468,0.02268,-13.0957
5469,0.02269,-13.0957
5470,0.0227,-13.0957
5471,0.02271,-13.0957
5472,0.02272,-13.0957
5473,0.02273,-13.0957
5474,0.02274,-13.0957
5475,0.02275,-13.0957
5476,0.02276,-13.0957
5477,0.02277,-13.0957
5478,0.02278,-13.0957
5479,0.02279,-13.0957
5480,0.0228,-13.0957
5481,0.02281,-13.0957
5482,0.02282,-13.0957
5483,0.02283,-13.0957
5484,0.02284,-13.0957
5485,0.02285,-13.0957
5486,0.02286,-13.0957
5487,0.02287,-13.0957
5488,0.02288,-13.0957
5489,0.02289,-13.1124
5490,0.0229,-13.1124
5491,0.02291,-13.1124
5492,0.02292,-13.1124
5493,0.02293,-13.0957
5494,0.02294,-13.0957
5495,0.02295,-13.0957
5496,0.02296,-13.0957
5497,0.02297,-13.0957
5498,0.02298,-13.0957
5499,0.02299,-13.0957
5500,0.023,-13.0957
5501,0.02301,-13.0957
5502,0.02302,-13.0957
5503,0.02303,-13.0957
5504,0.02304,-13.0957
5505,0.02305,-13.1124
5506,0.02306,-13.0957
5507,0.02307,-13.1291
5508,0.02308,-13.1124
5509,0.02309,-13.0957
5510,0.0231,-13.0957
5511,0.02311,-13.0957
5512,0.02312,-13.0957
5513,0.02313,-13.0957
5514,0.02314,-13.0957
5515,0.02315,-13.0957
5516,0.02316,-13.1124
5517,0.02317,-13.1124
5518,0.02318,-13.1124
5519,0.02319,-13.0957
5520,0.0232,-13.0957
5521,0.02321,-13.1124
5522,0.02322,-13.1124
5523,0.02323,-13.1124
5524,0.02324,-13.1124
5525,0.02325,-13.0957
5526,0.02326,-13.1291
5527,0.02327,-13.1124
5528,0.02328,-13.0957
5529,0.02329,-13.0957
5530,0.0233,-13.0957
5531,0.02331,-13.0957
5532,0.02332,-13.1291
5533,0.02333,-13.079
5534,0.02334,-13.1124
5535,0.02335,-13.0957
5536,0.02336,-13.1124
5537,0.02337,-13.1124
5538,0.02338,-13.1124
5539,0.02339,-13.1124
5540,0.0234,-13.0957
5541,0.02341,-13.1124
5542,0.02342,-13.1124
5543,0.02343,-13.1124
5544,0.02344,-13.079
5545,0.02345,-13.1291
5546,0.02346,-13.0957
5547,0.02347,-13.1124
5548,0.02348,-13.1124
5549,0.02349,-13.1124
5550,0.0235,-13.1124
5551,0.02351,-13.0957
5552,0.02352,-13.0957
5553,0.02353,-13.1124
5554,0.02354,-13.1124
5555,0.02355,-13.1124
5556,0.02356,-13.1124
5557,0.02357,-13.1291
5558,0.02358,-13.0957
5559,0.02359,-13.1124
5560,0.0236,-13.0957
5561,0.02361,-13.0957
5562,0.02362,-13.1124
5563,0.02363,-13.1124
5564,0.02364,-13.1124
5565,0.02365,-13.079
5566,0.02366,-13.1124
5567,0.02367,-13.1124
5568,0.02368,-13.1124
5569,0.02369,-13.1124
5570,0.0237,-13.1124
5571,0.02371,-13.0957
5572,0.02372,-13.1124
5573,0.02373,-13.0957
5574,0.02374,-13.1124
5575,0.02375,-13.1124
5576,0.02376,-13.1124
5577,0.02377,-13.1124
5578,0.02378,-13.1291
5579,0.02379,-13.1124
5580,0.0238,-13.0957
5581,0.02381,-13.1124
5582,0.02382,-13.1124
5583,0.02383,-13.1124
5584,0.02384,-13.1124
5585,0.02385,-13.1124
5586,0.02386,-13.1124
5587,0.02387,-13.1124
5588,0.02388,-13.1124
5589,0.02389,-13.1124
5590,0.0239,-13.1124
5591,0.02391,-13.1124
5592,0.02392,-13.1124
5593,0.02393,-13.1124
5594,0.02394,-13.1124
5595,0.02395,-13.1124
5596,0.02396,-13.1124
5597,0.02397,-13.1124
5598,0.02398,-13.0957
5599,0.02399,-13.1124
5600,0.024,-13.1124
5601,0.02401,-13.1124
5602,0.02402,-13.1124
5603,0.02403,-13.1124
5604,0.02404,-13.1124
5605,0.02405,-13.1124
5606,0.02406,-13.1124
5607,0.02407,-13.1124
5608,0.02408,-13.1124
5609,0.02409,-13.1124
5610,0.0241,-13.1124
5611,0.02411,-13.1124
5612,0.02412,-13.1124
5613,0.02413,-13.1124
5614,0.02414,-13.1124
5615,0.02415,-13.1124
5616,0.02416,-13.1124
5617,0.02417,-13.1124
5618,0.02418,-13.1124
5619,0.02419,-13.1124
5620,0.0242,-13.1124
5621,0.02421,-13.1124
5622,0.02422,-13.1124
5623,0.02423,-13.1124
5624,0.02424,-13.1124
5625,0.02425,-13.1124
5626,0.02426,-13.1124
5627,0.02427,-13.1124
5628,0.02428,-13.1124
5629,0.02429,-13.1124
5630,0.0243,-13.1124
5631,0.02431,-13.1124
5632,0.02432,-13.1124
5633,0.02433,-13.1124
5634,0.02434,-13.1124
5635,0.02435,-13.1124
5636,0.02436,-13.1124
5637,0.02437,-13.1124
5638,0.02438,-13.1124
5639,0.02439,-13.1124
5640,0.0244,-13.1124
5641,0.02441,-13.1124
5642,0.02442,-13.1124
5643,0.02443,-13.1124
5644,0.02444,-13.1124
5645,0.02445,-13.1124
5646,0.02446,-13.1124
5647,0.02447,-13.1124
5648,0.02448,-13.1124
5649,0.02449,-13.1124
5650,0.0245,-13.1124
5651,0.02451,-13.1124
5652,0.02452,-13.1124
5653,0.02453,-13.1124
5654,0.02454,-13.1124
5655,0.02455,-13.1124
5656,0.02456,-13.1124
5657,0.02457,-13.1124
5658,0.02458,-13.1124
5659,0.02459,-13.1124
5660,0.0246,-13.1124
5661,0.02461,-13.1124
5662,0.02462,-13.1124
5663,0.02463,-13.1124
5664,0.02464,-13.1124
5665,0.02465,-13.1124
5666,0.02466,-13.1124
5667,0.02467,-13.1124
5668,0.02468,-13.1124
5669,0.02469,-13.1124
5670,0.0247,-13.1124
5671,0.02471,-13.1124
5672,0.02472,-13.1124
5673,0.02473,-13.1124
5674,0.02474,-13.1124
5675,0.02475,-13.1124
5676,0.02476,-13.1124
5677,0.02477,-13.1124
5678,0.02478,-13.1124
5679,0.02479,-13.1124
5680,0.0248,-13.1124
5681,0.02481,-13.1124
5682,0.02482,-13.1124
5683,0.02483,-13.1124
5684,0.02484,-13.1124
5685,0.02485,-13.1124
5686,0.02486,-13.1124
5687,0.02487,-13.1124
5688,0.02488,-13.1124
5689,0.02489,-13.1124
5690,0.0249,-13.1124
5691,0.02491,-13.1124
5692,0.02492,-13.1124
5693,0.02493,-13.0957
5694,0.02494,-13.0957
5695,0.02495,-13.0957
5696,0.02496,-13.0957
5697,0.02497,-13.0957
5698,0.02498,-13.0957
5699,0.02499,-13.0957
5700,0.025,-13.0957
5701,0.02501,-13.0957
5702,0.02502,-13.0957
5703,0.02503,-13.1291
5704,0.02504,-13.0957
5705,0.02505,-13.0957
5706,0.02506,-13.0957
5707,0.02507,-13.0957
5708,0.02508,-13.0957
5709,0.02509,-13.0957
5710,0.0251,-13.1124
5711,0.02511,-13.0957
5712,0.02512,-13.0957
5713,0.02513,-13.0957
5714,0.02514,-13.1124
5715,0.02515,-13.1124
5716,0.02516,-13.0957
5717,0.02517,-13.0957
5718,0.02518,-13.0957
5719,0.02519,-13.1124
5720,0.0252,-13.1124
5721,0.02521,-13.1124
5722,0.02522,-13.1124
5723,0.02523,-13.1124
5724,0.02524,-13.1124
5725,0.02525,-13.1124
5726,0.02526,-13.1124
5727,0.02527,-13.1124
5728,0.02528,-13.1124
5729,0.02529,-13.1124
5730,0.0253,-13.1124
5731,0.02531,-13.1124
5732,0.02532,-13.1124
5733,0.02533,-13.1124
5734,0.02534,-13.1124
5735,0.02535,-13.1124
5736,0.02536,-13.1124
5737,0.02537,-13.1124
5738,0.02538,-13.1124
5739,0.02539,-13.1124
5740,0.0254,-13.1124
5741,0.02541,-13.1124
5742,0.02542,-13.1124
5743,0.02543,-13.1124
5744,0.02544,-13.1124
5745,0.02545,-13.1124
5746,0.02546,-13.1124
5747,0.02547,-13.1124
5748,0.02548,-13.1124
5749,0.02549,-13.1124
5750,0.0255,-13.1124
5751,0.02551,-13.1124
5752,0.02552,-13.1124
5753,0.02553,-13.1124
5754,0.02554,-13.1124
5755,0.02555,-13.1124
5756,0.02556,-13.1124
5757,0.02557,-13.1124
5758,0.02558,-13.1124
5759,0.02559,-13.1124
5760,0.0256,-13.1124
5761,0.02561,-13.1124
5762,0.02562,-13.1124
5763,0.02563,-13.1124
5764,0.02564,-13.1124
5765,0.02565,-13.1124
5766,0.02566,-13.1124
5767,0.02567,-13.1124
5768,0.02568,-13.1124
5769,0.02569,-13.1124
5770,0.0257,-13.1124
5771,0.02571,-13.1124
5772,0.02572,-13.1124
5773,0.02573,-13.1124
5774,0.02574,-13.1124
5775,0.02575,-13.1124
5776,0.02576,-13.1124
5777,0.02577,-13.1124
5778,0.02578,-13.1124
5779,0.02579,-13.1124
5780,0.0258,-13.1124
5781,0.02581,-13.1124
5782,0.02582,-13.1124
5783,0.02583,-13.1124
5784,0.02584,-13.1124
5785,0.02585,-13.1124
5786,0.02586,-13.1124
5787,0.02587,-13.1124
5788,0.02588,-13.1124
5789,0.02589,-13.1124
5790,0.0259,-13.1124
5791,0.02591,-13.1124
5792,0.02592,-13.1124
5793,0.02593,-13.1124
5794,0.02594,-13.1124
5795,0.02595,-13.1124
5796,0.02596,-13.1124
5797,0.02597,-13.1124
5798,0.02598,-13.1124
5799,0.02599,-13.1124
5800,0.026,-13.1124
5801,0.02601,-13.1124
5802,0.02602,-13.1124
5803,0.02603,-13.1124
5804,0.02604,-13.1124
5805,0.02605,-13.1124
5806,0.02606,-13.1124
5807,0.02607,-13.1124
5808,0.02608,-13.1124
5809,0.02609,-13.1124
5810,0.0261,-13.1124
5811,0.02611,-13.1124
5812,0.02612,-13.1124
5813,0.02613,-13.1124
5814,0.02614,-13.1124
5815,0.02615,-13.1124
5816,0.02616,-13.1124
5817,0.02617,-13.1124
5818,0.02618,-13.1124
5819,0.02619,-13.1124
5820,0.0262,-13.1124
5821,0.02621,-13.1124
5822,0.02622,-13.1124
5823,0.02623,-13.1124
5824,0.02624,-13.1124
5825,0.02625,-13.1124
5826,0.02626,-13.1124
5827,0.02627,-13.1124
5828,0.02628,-13.1124
5829,0.02629,-13.1124
5830,0.0263,-13.1124
5831,0.02631,-13.1124
5832,0.02632,-13.1124
5833,0.02633,-13.1124
5834,0.02634,-13.1124
5835,0.02635,-13.1124
5836,0.02636,-13.1124
5837,0.02637,-13.1124
5838,0.02638,-13.1124
5839,0.02639,-13.1124
5840,0.0264,-13.1124
5841,0.02641,-13.1124
5842,0.02642,-13.1124
5843,0.02643,-13.1124
5844,0.02644,-13.1124
5845,0.02645,-13.1124
5846,0.02646,-13.1124
5847,0.02647,-13.1124
5848,0.02648,-13.1124
5849,0.02649,-13.1124
5850,0.0265,-13.1124
5851,0.02651,-13.1124
5852,0.02652,-13.1124
5853,0.02653,-13.1124
5854,0.02654,-13.1124
5855,0.02655,-13.1124
5856,0.02656,-13.1124
5857,0.02657,-13.1124
5858,0.02658,-13.1124
5859,0.02659,-13.1124
5860,0.0266,-13.1124
5861,0.02661,-13.1124
5862,0.02662,-13.1124
5863,0.02663,-13.1124
5864,0.02664,-13.1124
5865,0.02665,-13.1124
5866,0.02666,-13.1124
5867,0.02667,-13.1124
5868,0.02668,-13.1124
5869,0.02669,-13.1124
5870,0.0267,-13.1124
5871,0.02671,-13.1124
5872,0.02672,-13.1124
5873,0.02673,-13.1124
5874,0.02674,-13.1124
5875,0.02675,-13.1124
5876,0.02676,-13.1124
5877,0.02677,-13.1124
5878,0.02678,-13.1124
5879,0.02679,-13.1124
5880,0.0268,-13.1124
5881,0.02681,-13.1291
5882,0.02682,-13.1291
5883,0.02683,-13.1291
5884,0.02684,-13.1291
5885,0.02685,-13.1291
5886,0.02686,-13.1291
5887,0.02687,-13.1291
5888,0.02688,-13.1291
5889,0.02689,-13.1291
5890,0.0269,-13.1291
5891,0.02691,-13.1291
5892,0.02692,-13.1291
5893,0.02693,-13.1291
5894,0.02694,-13.1291
5895,0.02695,-13.1291
5896,0.02696,-13.1291
5897,0.02697,-13.1291
5898,0.02698,-13.1291
5899,0.02699,-13.1291
5900,0.027,-13.1291
5901,0.02701,-13.1291
5902,0.02702,-13.1291
5903,0.02703,-13.1291
5904,0.02704,-13.1291
5905,0.02705,-13.1291
5906,0.02706,-13.1291
5907,0.02707,-13.1291
5908,0.02708,-13.1291
5909,0.02709,-13.1291
5910,0.0271,-13.1291
5911,0.02711,-13.1291
5912,0.02712,-13.1291
5913,0.02713,-13.1291
5914,0.02714,-13.1291
5915,0.02715,-13.1291
5916,0.02716,-13.1291
5917,0.02717,-13.1291
5918,0.02718,-13.1291
5919,0.02719,-13.1291
5920,0.0272,-13.1291
5921,0.02721,-13.1291
5922,0.02722,-13.1291
5923,0.02723,-13.1291
5924,0.02724,-13.1291
5925,0.02725,-13.1291
5926,0.02726,-13.1291
5927,0.02727,-13.1291
5928,0.02728,-13.1291
5929,0.02729,-13.1291
5930,0.0273,-13.1291
5931,0.02731,-13.1291
5932,0.02732,-13.1291
5933,0.02733,-13.1291
5934,0.02734,-13.1291
5935,0.02735,-13.1291
5936,0.02736,-13.1291
5937,0.02737,-13.1291
5938,0.02738,-13.1291
5939,0.02739,-13.1291
5940,0.0274,-13.1291
5941,0.02741,-13.1291
5942,0.02742,-13.1291
5943,0.02743,-13.1291
5944,0.02744,-13.1291
5945,0.02745,-13.1291
5946,0.02746,-13.1291
5947,0.02747,-13.1291
5948,0.02748,-13.1291
5949,0.02749,-13.1291
5950,0.0275,-13.1291
5951,0.02751,-13.1291
5952,0.02752,-13.1291
5953,0.02753,-13.1291
5954,0.02754,-13.1291
5955,0.02755,-13.1291
5956,0.02756,-13.1291
5957,0.02757,-13.1291
5958,0.02758,-13.1291
5959,0.02759,-13.1291
5960,0.0276,-13.1291
5961,0.02761,-13.1291
5962,0.02762,-13.1291
5963,0.02763,-13.1291
5964,0.02764,-13.1291
5965,0.02765,-13.1291
5966,0.02766,-13.1291
5967,0.02767,-13.1291
5968,0.02768,-13.1291
5969,0.02769,-13.1291
5970,0.0277,-13.1291
5971,0.02771,-13.1291
5972,0.02772,-13.1291
5973,0.02773,-13.1291
5974,0.02774,-13.1291
5975,0.02775,-13.1291
5976,0.02776,-13.1291
5977,0.02777,-13.1291
5978,0.02778,-13.1291
5979,0.02779,-13.1291
5980,0.0278,-13.1291
5981,0.02781,-13.1291
5982,0.02782,-13.1291
5983,0.02783,-13.1291
5984,0.02784,-13.1291
5985,0.02785,-13.1291
5986,0.02786,-13.1291
5987,0.02787,-13.1291
5988,0.02788,-13.1291
5989,0.02789,-13.1291
5990,0.0279,-13.1291
5991,0.02791,-13.1291
5992,0.02792,-13.1291
5993,0.02793,-13.1291
5994,0.02794,-13.1291
5995,0.02795,-13.1291
5996,0.02796,-13.1291
5997,0.02797,-13.1291
5998,0.02798,-13.1291
5999,0.02799,-13.1291
6000,0.028,-13.1291
6001,0.02801,-13.1291
6002,0.02802,-13.1291
6003,0.02803,-13.0957
6004,0.02804,-13.1458
6005,0.02805,-13.1124
6006,0.02806,-13.1291
6007,0.02807,-13.1291
6008,0.02808,-13.1291
6009,0.02809,-13.1124
6010,0.0281,-13.1291
6011,0.02811,-13.1291
6012,0.02812,-13.1291
6013,0.02813,-13.1291
6014,0.02814,-13.1124
6015,0.02815,-13.1291
6016,0.02816,-13.1291
6017,0.02817,-13.1291
6018,0.02818,-13.1291
6019,0.02819,-13.1291
6020,0.0282,-13.1124
6021,0.02821,-13.1124
6022,0.02822,-13.1124
6023,0.02823,-13.1124
6024,0.02824,-13.1124
6025,0.02825,-13.1124
6026,0.02826,-13.1124
6027,0.02827,-13.1124
6028,0.02828,-13.1124
6029,0.02829,-13.1124
6030,0.0283,-13.1124
6031,0.02831,-13.1291
6032,0.02832,-13.1291
6033,0.02833,-13.1291
6034,0.02834,-13.1124
6035,0.02835,-13.1124
6036,0.02836,-13.1124
6037,0.02837,-13.1124
6038,0.02838,-13.1124
6039,0.02839,-13.1124
6040,0.0284,-13.1124
6041,0.02841,-13.1124
6042,0.02842,-13.1124
6043,0.02843,-13.1124
6044,0.02844,-13.1124
6045,0.02845,-13.1124
6046,0.02846,-13.1124
6047,0.02847,-13.1124
6048,0.02848,-13.1124
6049,0.02849,-13.1124
6050,0.0285,-13.1124
6051,0.02851,-13.1124
6052,0.02852,-13.1124
6053,0.02853,-13.1124
6054,0.02854,-13.1124
6055,0.02855,-13.1124
6056,0.02856,-13.1124
6057,0.02857,-13.1124
6058,0.02858,-13.1124
6059,0.02859,-13.1124
6060,0.0286,-13.1124
6061,0.02861,-13.1124
6062,0.02862,-13.1124
6063,0.02863,-13.1124
6064,0.02864,-13.1124
6065,0.02865,-13.1124
6066,0.02866,-13.1124
6067,0.02867,-13.1124
6068,0.02868,-13.1124
6069,0.02869,-13.1124
6070,0.0287,-13.1124
6071,0.02871,-13.1124
6072,0.02872,-13.1124
6073,0.02873,-13.1124
6074,0.02874,-13.1124
6075,0.02875,-13.1124
6076,0.02876,-13.1124
6077,0.02877,-13.1124
6078,0.02878,-13.1124
6079,0.02879,-13.1124
6080,0.0288,-13.1124
6081,0.02881,-13.1124
6082,0.02882,-13.1124
6083,0.02883,-13.1124
6084,0.02884,-13.1124
6085,0.02885,-13.1124
6086,0.02886,-13.1124
6087,0.02887,-13.1124
6088,0.02888,-13.1124
6089,0.02889,-13.1124
6090,0.0289,-13.1124
6091,0.02891,-13.1124
6092,0.02892,-13.1124
6093,0.02893,-13.1124
6094,0.02894,-13.1124
6095,0.02895,-13.1124
6096,0.02896,-13.1124
6097,0.02897,-13.1124
6098,0.02898,-13.1124
6099,0.02899,-13.1291
6100,0.029,-13.0957
6101,0.02901,-13.1124
6102,0.02902,-13.1124
6103,0.02903,-13.1124
6104,0.02904,-13.1124
6105,0.02905,-13.1124
6106,0.02906,-13.079
6107,0.02907,-13.1291
6108,0.02908,-13.0957
6109,0.02909,-13.0957
6110,0.0291,-13.0957
6111,0.02911,-13.0957
6112,0.02912,-13.0957
6113,0.02913,-13.0957
6114,0.02914,-13.0957
6115,0.02915,-13.0957
6116,0.02916,-13.0957
6117,0.02917,-13.0957
6118,0.02918,-13.0957
6119,0.02919,-13.0957
6120,0.0292,-13.0957
6121,0.02921,-13.0957
6122,0.02922,-13.0957
6123,0.02923,-13.1124
6124,0.02924,-13.0957
6125,0.02925,-13.0957
6126,0.02926,-13.1124
6127,0.02927,-13.1124
6128,0.02928,-13.0957
6129,0.02929,-13.0957
6130,0.0293,-13.0957
6131,0.02931,-13.0957
6132,0.02932,-13.0957
6133,0.02933,-13.0957
6134,0.02934,-13.0957
6135,0.02935,-13.0957
6136,0.02936,-13.0957
6137,0.02937,-13.0957
6138,0.02938,-13.0957
6139,0.02939,-13.0957
6140,0.0294,-13.0957
6141,0.02941,-13.0957
6142,0.02942,-13.0957
6143,0.02943,-13.0957
6144,0.02944,-13.0957
6145,0.02945,-13.0957
6146,0.02946,-13.0957
6147,0.02947,-13.0957
6148,0.02948,-13.0957
6149,0.02949,-13.0957
6150,0.0295,-13.0957
6151,0.02951,-13.0957
6152,0.02952,-13.0957
6153,0.02953,-13.0957
6154,0.02954,-13.0957
6155,0.02955,-13.0957
6156,0.02956,-13.0957
6157,0.02957,-13.0957
6158,0.02958,-13.0957
6159,0.02959,-13.0957
6160,0.0296,-13.1124
6161,0.02961,-13.079
6162,0.02962,-13.0957
6163,0.02963,-13.079
6164,0.02964,-13.079
6165,0.02965,-13.079
6166,0.02966,-13.079
6167,0.02967,-13.079
6168,0.02968,-13.079
6169,0.02969,-13.079
6170,0.0297,-13.079
6171,0.02971,-13.079
6172,0.02972,-13.079
6173,0.02973,-13.079
6174,0.02974,-13.079
6175,0.02975,-13.079
6176,0.02976,-13.079
6177,0.02977,-13.079
6178,0.02978,-13.079
6179,0.02979,-13.079
6180,0.0298,-13.079
6181,0.02981,-13.079
6182,0.02982,-13.079
6183,0.02983,-13.079
6184,0.02984,-13.079
6185,0.02985,-13.079
6186,0.02986,-13.079
6187,0.02987,-13.079
6188,0.02988,-13.079
6189,0.02989,-13.079
6190,0.0299,-13.079
6191,0.02991,-13.079
6192,0.02992,-13.079
6193,0.02993,-13.079
6194,0.02994,-13.079
6195,0.02995,-13.0623
6196,0.02996,-13.0623
6197,0.02997,-13.0623
6198,0.02998,-13.0623
6199,0.02999,-13.0623
6200,0.03,-13.0623
6201,0.03001,-13.0623
6202,0.03002,-13.0623
6203,0.03003,-13.0623
6204,0.03004,-13.0623
6205,0.03005,-13.0623
6206,0.03006,-13.0623
6207,0.03007,-13.0623
6208,0.03008,-13.0623
6209,0.03009,-13.0623
6210,0.0301,-13.0623
6211,0.03011,-13.0623
6212,0.03012,-13.0623
6213,0.03013,-13.0623
6214,0.03014,-13.0623
6215,0.03015,-13.0623
6216,0.03016,-13.0623
6217,0.03017,-13.0623
6218,0.03018,-13.0289
6219,0.03019,-13.0623
6220,0.0302,-13.0289
6221,0.03021,-13.0289
6222,0.03022,-13.0289
6223,0.03023,-13.0289
6224,0.03024,-13.0289
6225,0.03025,-13.0289
6226,0.03026,-13.0289
6227,0.03027,-13.0289
6228,0.03028,-13.0289
6229,0.03029,-13.0289
6230,0.0303,-13.0289
6231,0.03031,-13.0289
6232,0.03032,-13.0289
6233,0.03033,-13.0289
6234,0.03034,-13.0122
6235,0.03035,-13.0122
6236,0.03036,-13.0122
6237,0.03037,-13.0122
6238,0.03038,-13.0122
6239,0.03039,-13.0122
6240,0.0304,-13.0122
6241,0.03041,-13.0122
6242,0.03042,-13.0122
6243,0.03043,-12.9955
6244,0.03044,-12.9955
6245,0.03045,-12.9955
6246,0.03046,-12.5445
6247,0.03047,-10.6069
6248,0.03048,12.2438
6249,0.03049,10.5233
6250,0.0305,10.7572
6251,0.03051,10.7405
6252,0.03052,10.7071
6253,0.03053,10.6904
6254,0.03054,10.9576
6255,0.03055,10.9242
6256,0.03056,10.7572
6257,0.03057,11.0245
6258,0.03058,11.1247
6259,0.03059,10.9075
6260,0.0306,11.1581
6261,0.03061,11.275
6262,0.03062,11.0579
6263,0.03063,11.2917
6264,0.03064,11.4253
6265,0.03065,11.2416
6266,0.03066,11.4086
6267,0.03067,11.5924
6268,0.03068,11.4253
6269,0.03069,11.4922
6270,0.0307,11.6926
6271,0.03071,11.5924
6272,0.03072,11.5757
6273,0.03073,11.7928
6274,0.03074,11.726
6275,0.03075,11.6425
6276,0.03076,11.8763
6277,0.03077,11.8763
6278,0.03078,11.6926
6279,0.03079,11.9599
6280,0.0308,11.9432
6281,0.03081,11.7427
6282,0.03082,11.9933
6283,0.03083,12.0768
6284,0.03084,11.8262
6285,0.03085,12.0601
6286,0.03086,12.1269
6287,0.03087,11.893
6288,0.03088,12.0601
6289,0.03089,12.1937
6290,0.0309,11.9766
6291,0.03091,12.0935
6292,0.03092,12.2271
6293,0.03093,12.0768
6294,0.03094,12.0768
6295,0.03095,12.2605
6296,0.03096,12.1603
6297,0.03097,12.0768
6298,0.03098,12.3273
6299,0.03099,12.2104
6300,0.031,12.0935
6301,0.03101,12.3273
6302,0.03102,12.3106
6303,0.03103,12.0935
6304,0.03104,12.3608
6305,0.03105,12.3775
6306,0.03106,12.1269
6307,0.03107,12.3608
6308,0.03108,12.4109
6309,0.03109,12.1603
6310,0.0311,12.3441
6311,0.03111,12.4443
6312,0.03112,12.1937
6313,0.03113,12.3273
6314,0.03114,12.4443
6315,0.03115,12.2772
6316,0.03116,12.3106
6317,0.03117,12.3775
6318,0.03118,13.5467
6319,0.03119,-4.84408
6320,0.0312,-13.6971
6321,0.03121,-13.5801
6322,0.03122,-13.4966
6323,0.03123,-13.4131
6324,0.03124,-13.3129
6325,0.03125,-13.2293
6326,0.03126,-13.1625
6327,0.03127,-13.1458
6328,0.03128,-13.1124
6329,0.03129,-13.079
6330,0.0313,-13.0623
6331,0.03131,-13.0623
6332,0.03132,-13.0289
6333,0.03133,-13.0289
6334,0.03134,-13.0289
6335,0.03135,-13.0289
6336,0.03136,-13.0122
6337,0.03137,-13.0122
6338,0.03138,-13.0122
6339,0.03139,-13.0122
6340,0.0314,-13.0122
6341,0.03141,-13.0122
6342,0.03142,-13.0122
6343,0.03143,-13.0122
6344,0.03144,-13.0122
6345,0.03145,-13.0122
6346,0.03146,-13.0122
6347,0.03147,-13.0122
6348,0.03148,-13.0122
6349,0.03149,-13.0122
6350,0.0315,-13.0122
6351,0.03151,-13.0122
6352,0.03152,-13.0122
6353,0.03153,-13.0122
6354,0.03154,-13.0289
6355,0.03155,-13.0289
6356,0.03156,-13.0289
6357,0.03157,-13.0289
6358,0.03158,-13.0289
6359,0.03159,-13.0289
6360,0.0316,-13.0289
6361,0.03161,-13.0289
6362,0.03162,-13.0122
6363,0.03163,-13.0289
6364,0.03164,-13.0289
6365,0.03165,-13.0122
6366,0.03166,-13.0122
6367,0.03167,-13.0623
6368,0.03168,-13.0122
6369,0.03169,-13.0289
6370,0.0317,-13.0289
6371,0.03171,-13.0289
6372,0.03172,-13.0289
6373,0.03173,-13.0289
6374,0.03174,-13.0289
6375,0.03175,-13.0289
6376,0.03176,-13.0289
6377,0.03177,-13.0289
6378,0.03178,-13.0289
6379,0.03179,-13.0289
6380,0.0318,-13.0289
6381,0.03181,-13.0289
6382,0.03182,-13.0289
6383,0.03183,-13.0289
6384,0.03184,-13.0289
6385,0.03185,-13.0289
6386,0.03186,-13.0289
6387,0.03187,-13.0289
6388,0.03188,-13.0289
6389,0.03189,-13.0289
6390,0.0319,-13.0289
6391,0.03191,-13.0289
6392,0.03192,-13.0289
6393,0.03193,-13.0289
6394,0.03194,-13.0289
6395,0.03195,-13.0289
6396,0.03196,-13.0289
6397,0.03197,-13.0289
6398,0.03198,-13.0289
6399,0.03199,-13.0289
